timestamps,TP9,AF7,AF8,TP10,Right AUX
1706145455.636,445.312,33.691,29.297,283.203,752.930
1706145455.640,78.125,33.691,35.156,13.184,289.551
1706145455.644,-400.879,26.855,32.227,-237.305,-555.664
1706145455.648,-69.336,29.785,24.902,-6.348,-353.516
1706145455.652,413.086,33.691,25.391,276.367,585.449
1706145455.656,208.984,30.762,32.227,92.773,491.211
1706145455.660,-352.051,26.855,29.785,-219.727,-373.535
1706145455.663,-204.102,25.391,20.996,-90.820,-509.277
1706145455.667,303.711,26.855,20.996,235.840,326.172
1706145455.671,340.820,31.250,26.855,189.941,688.477
1706145455.675,-194.824,31.250,31.738,-142.090,-166.504
1706145455.679,-321.777,24.414,22.949,-180.664,-662.109
1706145455.681,166.992,27.832,20.508,140.625,-12.695
1706145455.685,430.176,35.156,25.391,259.277,778.809
1706145455.689,-24.902,34.180,27.344,-50.293,158.203
1706145455.693,-392.578,26.855,28.809,-227.539,-541.992
1706145455.697,29.297,28.320,24.414,52.734,-176.270
1706145455.701,455.566,35.645,26.855,279.785,701.660
1706145455.705,109.375,35.156,34.180,30.762,329.590
1706145455.708,-398.438,28.320,34.668,-238.281,-580.078
1706145455.712,-98.145,29.297,32.227,-24.902,-472.656
1706145455.716,393.066,36.133,30.762,274.414,471.191
1706145455.720,251.953,37.109,32.715,110.840,516.602
1706145455.724,-308.594,31.738,30.762,-206.543,-349.609
1706145455.726,-239.258,28.320,24.902,-115.723,-570.312
1706145455.730,271.484,31.738,25.879,212.891,270.508
1706145455.734,369.141,36.133,30.273,211.914,740.234
1706145455.738,-155.762,31.738,31.250,-125.488,-99.609
1706145455.742,-344.727,28.320,26.367,-204.102,-656.738
1706145455.746,123.047,34.180,23.438,115.234,-78.613
1706145455.750,434.082,36.133,23.438,261.719,786.621
1706145455.753,15.625,33.203,28.809,-37.109,152.344
1706145455.757,-397.949,29.785,28.320,-238.770,-691.895
1706145455.761,-11.719,32.715,22.949,29.785,-274.902
1706145455.765,441.895,36.621,22.949,280.762,708.984
1706145455.769,154.297,36.133,29.297,46.875,449.219
1706145455.771,-387.207,29.785,31.738,-237.305,-454.102
1706145455.775,-142.090,27.344,27.832,-55.664,-488.770
1706145455.779,362.305,31.738,26.855,259.277,441.895
1706145455.783,263.672,33.691,30.762,138.184,615.234
1706145455.787,-299.805,28.809,30.762,-196.289,-308.105
1706145455.791,-280.762,25.391,24.902,-144.043,-656.250
1706145455.795,219.727,29.785,22.949,183.105,134.766
1706145455.798,381.836,34.180,25.391,214.844,729.492
1706145455.802,-104.004,30.273,29.297,-108.887,-61.035
1706145455.806,-369.629,23.438,27.832,-214.844,-661.621
1706145455.810,73.730,29.297,22.461,94.238,-108.398
1706145455.814,435.059,35.645,21.484,274.414,766.113
1706145455.816,41.504,30.762,26.855,-3.418,250.488
1706145455.820,-409.668,25.879,27.832,-239.258,-578.125
1706145455.824,-47.363,28.809,27.344,3.418,-287.109
1706145455.828,420.898,31.738,30.273,277.344,651.855
1706145455.832,171.875,30.762,31.250,72.266,479.980
1706145455.836,-372.070,25.391,30.273,-221.191,-433.594
1706145455.840,-165.039,26.367,26.855,-67.871,-546.875
1706145455.843,337.891,33.691,26.855,239.746,359.863
1706145455.847,310.059,35.645,30.762,152.832,635.254
1706145455.851,-228.516,29.785,28.809,-168.945,-190.430
1706145455.855,-296.387,27.344,22.949,-158.691,-633.789
1706145455.859,192.871,31.250,24.414,166.992,62.500
1706145455.862,410.156,32.227,26.367,236.328,797.852
1706145455.866,-64.453,29.785,28.320,-77.637,44.434
1706145455.870,-380.859,24.902,26.367,-216.797,-684.570
1706145455.874,47.363,25.879,21.484,75.195,-188.477
1706145455.878,441.895,30.273,24.902,281.250,740.723
1706145455.882,80.566,27.832,30.273,8.301,349.609
1706145455.886,-400.879,22.949,28.320,-237.793,-501.953
1706145455.889,-78.125,24.902,25.391,-16.602,-390.625
1706145455.893,409.180,31.738,26.855,269.531,590.332
1706145455.897,219.727,34.668,30.762,96.680,530.273
1706145455.901,-349.121,29.297,33.691,-218.262,-408.691
1706145455.905,-202.148,24.902,29.297,-94.238,-524.902
1706145455.906,312.500,30.762,25.391,224.609,319.824
1706145455.910,341.797,34.180,30.762,187.500,684.570
1706145455.914,-197.754,30.273,32.715,-124.512,-146.973
1706145455.918,-317.871,26.855,27.832,-163.086,-667.480
1706145455.922,159.668,31.250,25.879,143.066,15.625
1706145455.926,428.223,33.203,30.273,250.000,777.344
1706145455.930,-21.484,32.227,31.250,-55.176,84.961
1706145455.933,-393.555,26.855,23.438,-234.863,-637.207
1706145455.937,46.387,29.297,21.484,42.480,-215.332
1706145455.941,470.703,33.691,25.391,275.391,747.559
1706145455.945,106.445,29.297,30.273,32.715,372.070
1706145455.949,-408.691,25.879,28.320,-231.934,-545.898
1706145455.951,-106.445,28.320,24.414,-28.320,-437.500
1706145455.955,377.930,33.203,24.902,262.695,526.855
1706145455.959,229.980,33.691,29.785,102.539,546.875
1706145455.963,-316.406,28.809,30.273,-215.332,-388.672
1706145455.967,-235.352,23.438,22.461,-122.559,-608.398
1706145455.971,265.137,27.344,20.996,209.961,222.168
1706145455.975,361.328,28.809,25.879,202.148,704.102
1706145455.978,-138.672,25.879,33.691,-126.953,-128.906
1706145455.982,-326.172,20.508,26.855,-201.660,-690.918
1706145455.986,135.742,22.949,21.973,104.492,-77.637
1706145455.990,451.172,30.273,25.391,253.418,791.016
1706145455.994,12.695,24.902,29.785,-43.457,213.867
1706145456.011,-409.180,18.066,30.273,-236.816,-638.184
1706145456.015,-14.648,23.438,25.879,34.668,-302.734
1706145456.019,428.223,29.297,23.926,275.879,689.941
1706145456.023,140.137,24.902,27.344,48.340,445.312
1706145456.027,-372.070,15.137,33.691,-212.891,-508.789
1706145456.031,-114.746,19.043,29.297,-27.832,-553.711
1706145456.035,369.629,32.715,24.902,261.230,448.730
1706145456.038,272.949,38.086,23.926,145.508,629.883
1706145456.042,-281.738,33.203,22.461,-180.176,-263.672
1706145456.046,-269.531,29.785,13.184,-143.555,-616.211
1706145456.050,236.816,38.086,8.789,181.152,125.488
1706145456.054,390.625,43.457,11.230,217.285,764.648
1706145456.056,-108.887,43.945,9.766,-105.957,-1.465
1706145456.060,-359.863,44.434,2.441,-218.262,-651.367
1706145456.064,99.121,51.270,-5.371,94.238,-70.801
1706145456.068,456.543,58.594,-6.348,275.879,843.750
1706145456.072,64.941,53.711,-3.418,-17.090,256.836
1706145456.076,-388.184,48.828,-5.371,-243.164,-640.137
1706145456.080,-31.738,52.246,-8.789,4.883,-357.910
1706145456.083,436.523,57.617,-9.277,266.113,707.520
1706145456.087,193.848,60.059,-6.348,59.082,522.461
1706145456.091,-342.773,53.223,-6.348,-243.652,-479.980
1706145456.095,-148.438,51.270,-13.184,-92.285,-581.055
1706145456.099,341.309,58.105,-13.672,240.723,420.898
1706145456.102,307.129,58.105,-5.371,156.738,725.098
1706145456.106,-220.703,54.199,-3.906,-177.734,-221.191
1706145456.110,-273.438,48.828,-8.301,-159.668,-675.293
1706145456.114,203.613,49.805,-9.766,166.016,93.262
1706145456.118,420.410,55.664,-7.324,236.816,851.074
1706145456.122,-49.805,49.805,-2.441,-80.078,53.223
1706145456.126,-359.863,43.945,-3.418,-223.633,-669.922
1706145456.129,76.172,47.852,-1.953,77.637,-146.973
1706145456.133,467.773,49.805,2.930,288.086,816.406
1706145456.137,105.469,46.875,8.789,14.160,339.844
1706145456.141,-374.512,39.062,11.719,-239.258,-619.141
1706145456.145,-54.688,37.598,6.348,-14.648,-430.664
1706145456.146,409.668,43.457,6.836,271.973,625.000
1706145456.150,214.844,43.457,16.113,99.609,583.496
1706145456.154,-317.383,35.156,15.137,-208.008,-424.316
1706145456.158,-171.387,32.227,6.348,-86.914,-590.332
1706145456.162,309.570,36.133,10.742,240.723,352.539
1706145456.166,338.379,38.574,20.996,199.219,749.023
1706145456.170,-185.547,35.156,23.438,-135.254,-146.973
1706145456.173,-304.199,31.738,20.020,-169.922,-736.816
1706145456.177,172.852,35.156,20.508,147.949,-33.691
1706145456.181,442.383,38.574,23.926,255.371,849.121
1706145456.185,-2.441,37.109,29.785,-45.410,178.711
1706145456.189,-377.930,31.738,27.344,-218.750,-662.598
1706145456.191,34.180,31.250,20.508,59.082,-222.168
1706145456.195,457.031,35.156,21.973,291.504,836.426
1706145456.199,134.277,32.715,28.320,38.574,456.055
1706145456.203,-375.000,25.391,29.785,-228.516,-612.793
1706145456.207,-89.355,28.809,20.996,-27.344,-550.293
1706145456.211,397.949,34.180,18.066,261.230,553.711
1706145456.215,252.441,34.668,25.391,115.723,593.262
1706145456.218,-292.969,29.297,28.320,-193.359,-420.898
1706145456.222,-217.285,26.855,21.484,-109.863,-696.289
1706145456.226,270.508,32.715,21.973,208.984,241.211
1706145456.230,364.258,34.668,27.344,210.449,840.820
1706145456.234,-142.578,31.250,24.902,-116.211,-31.738
1706145456.236,-329.590,26.367,21.973,-197.754,-685.547
1706145456.240,138.184,30.273,25.879,118.164,-37.109
1706145456.244,453.125,36.133,28.320,270.020,876.953
1706145456.248,25.391,30.762,28.320,-17.090,200.195
1706145456.252,-397.949,25.391,27.344,-226.562,-715.332
1706145456.256,-9.277,25.391,25.391,26.367,-331.543
1706145456.260,435.059,29.785,24.902,278.320,748.047
1706145456.263,140.625,33.691,29.297,48.340,483.398
1706145456.267,-379.395,29.297,32.227,-239.258,-515.137
1706145456.271,-129.395,28.320,26.367,-60.059,-550.293
1706145456.275,354.980,31.738,23.926,253.906,475.586
1706145456.279,266.113,33.691,30.762,148.926,693.359
1706145456.281,-278.320,29.785,33.203,-177.246,-285.645
1706145456.285,-269.531,24.414,24.902,-144.043,-656.250
1706145456.289,226.562,30.762,22.949,175.781,170.898
1706145456.293,385.742,33.203,27.832,219.238,784.180
1706145456.297,-104.004,25.879,33.691,-83.496,-19.043
1706145456.301,-348.145,22.949,30.762,-186.523,-735.352
1706145456.305,98.633,29.785,22.461,91.797,-177.246
1706145456.308,439.453,36.133,20.508,262.695,852.051
1706145456.312,39.062,35.156,24.414,-22.461,310.059
1706145456.316,-416.016,26.855,22.949,-258.789,-663.086
1706145456.320,-45.898,28.320,19.043,0.000,-388.672
1706145456.324,418.457,35.156,18.555,273.926,672.852
1706145456.327,175.781,33.203,20.996,69.824,534.180
1706145456.331,-362.793,29.297,24.414,-229.004,-496.094
1706145456.335,-173.340,29.785,21.973,-74.219,-609.863
1706145456.339,318.848,35.156,21.484,244.141,401.367
1706145456.343,296.387,35.156,25.879,161.133,721.680
1706145456.347,-234.863,28.809,28.809,-168.945,-185.059
1706145456.351,-295.898,27.344,24.902,-169.922,-721.191
1706145456.354,187.988,34.668,24.902,150.879,21.484
1706145456.358,410.156,37.109,31.250,230.957,834.473
1706145456.362,-64.941,31.738,31.738,-83.496,41.016
1706145456.366,-387.207,27.344,27.344,-231.934,-698.242
1706145456.370,44.434,27.832,27.344,66.895,-178.223
1706145456.387,434.570,33.691,32.715,283.691,823.730
1706145456.391,75.684,32.227,34.180,7.812,349.121
1706145456.395,-406.738,24.902,30.273,-247.070,-589.844
1706145456.399,-75.195,27.344,25.879,-14.648,-367.188
1706145456.403,402.832,35.156,28.809,267.090,639.648
1706145456.407,205.078,35.156,35.156,94.238,554.199
1706145456.411,-330.566,30.762,31.738,-206.055,-494.629
1706145456.414,-193.359,30.273,21.973,-99.609,-673.340
1706145456.418,296.875,35.156,20.996,218.750,321.289
1706145456.422,346.191,38.086,26.367,183.594,763.184
1706145456.426,-177.734,34.180,26.855,-149.902,-158.691
1706145456.430,-320.801,27.832,19.043,-183.105,-733.887
1706145456.431,156.738,32.227,20.508,144.043,-22.949
1706145456.435,432.129,36.621,25.391,259.766,839.844
1706145456.439,-16.113,31.738,27.832,-40.039,149.414
1706145456.443,-384.277,24.902,26.367,-223.145,-671.387
1706145456.447,29.297,28.809,25.391,49.805,-243.164
1706145456.451,441.895,36.621,30.762,287.598,767.090
1706145456.455,113.770,34.180,33.691,42.969,415.527
1706145456.458,-395.996,25.879,27.832,-226.562,-511.719
1706145456.462,-111.816,23.926,21.973,-33.203,-439.941
1706145456.466,377.441,30.762,21.484,251.465,498.047
1706145456.470,234.863,33.691,24.902,103.027,561.523
1706145456.474,-321.289,28.320,29.297,-207.031,-369.141
1706145456.476,-238.281,25.391,24.414,-120.605,-703.613
1706145456.480,264.648,29.297,21.484,210.938,187.012
1706145456.484,357.422,34.180,24.414,210.938,798.340
1706145456.488,-153.320,32.227,26.855,-121.094,-109.863
1706145456.492,-348.633,28.809,24.414,-201.660,-759.766
1706145456.496,125.488,31.738,23.438,116.211,-71.289
1706145456.500,447.266,34.668,26.855,276.367,833.496
1706145456.503,24.414,32.715,27.832,-20.508,188.477
1706145456.507,-405.273,25.391,25.879,-239.746,-678.711
1706145456.511,-26.855,25.879,26.855,23.438,-347.656
1706145456.515,423.828,30.762,31.250,276.855,700.684
1706145456.519,145.508,29.785,34.668,50.781,493.164
1706145456.522,-367.188,27.344,29.785,-229.004,-492.676
1706145456.526,-128.906,28.809,22.461,-58.594,-521.973
1706145456.530,355.957,35.645,21.484,250.488,503.418
1706145456.534,271.973,36.133,29.297,140.625,645.996
1706145456.538,-267.578,28.809,30.762,-178.223,-321.777
1706145456.542,-259.766,27.832,21.484,-137.695,-672.363
1706145456.546,231.445,33.691,20.996,190.918,145.508
1706145456.549,387.695,35.645,25.879,230.957,797.363
1706145456.553,-108.398,30.762,28.320,-102.539,-8.789
1706145456.557,-366.211,23.926,27.832,-211.426,-704.590
1706145456.561,77.148,26.367,27.344,95.215,-112.793
1706145456.565,437.012,32.227,26.367,266.113,853.027
1706145456.567,50.781,29.297,28.809,-24.414,285.156
1706145456.571,-403.320,24.902,27.344,-253.906,-604.492
1706145456.575,-42.969,27.832,22.461,3.906,-345.215
1706145456.579,422.363,32.715,23.438,284.668,662.598
1706145456.583,179.688,32.715,31.250,77.637,480.469
1706145456.587,-355.469,28.320,31.250,-230.469,-532.715
1706145456.591,-162.598,29.297,22.949,-83.008,-618.652
1706145456.594,324.707,34.668,23.926,231.934,358.398
1706145456.598,300.781,35.156,31.250,154.297,659.668
1706145456.602,-237.305,32.715,32.227,-163.574,-254.883
1706145456.606,-302.246,29.297,19.043,-162.598,-711.426
1706145456.610,188.965,32.227,16.602,164.062,59.082
1706145456.611,409.668,36.621,25.879,248.047,844.727
1706145456.615,-59.082,32.227,31.738,-76.660,34.668
1706145456.619,-381.836,24.414,29.297,-226.562,-754.883
1706145456.623,51.758,27.344,26.855,61.523,-175.781
1706145456.627,448.730,33.691,25.879,272.949,823.242
1706145456.631,91.797,31.738,29.785,14.160,333.496
1706145456.635,-393.555,25.879,27.344,-237.793,-625.000
1706145456.638,-85.938,26.855,19.531,-12.207,-449.219
1706145456.642,389.160,32.715,22.461,270.996,619.629
1706145456.646,211.426,33.691,30.762,91.797,600.586
1706145456.650,-337.891,26.855,32.227,-216.309,-380.859
1706145456.654,-208.008,23.926,26.855,-94.238,-581.055
1706145456.672,288.086,29.297,27.344,229.980,321.777
1706145456.676,322.754,32.227,33.203,191.406,745.605
1706145456.680,-197.266,29.297,32.227,-133.301,-136.719
1706145456.684,-321.777,25.391,28.809,-175.781,-742.676
1706145456.688,155.762,29.297,28.809,135.254,-61.035
1706145456.692,424.805,33.203,28.809,246.582,840.820
1706145456.696,-10.742,31.738,31.250,-59.570,167.969
1706145456.699,-392.090,27.344,27.344,-239.258,-658.203
1706145456.703,-3.418,28.809,22.949,43.457,-234.863
1706145456.707,434.570,35.156,25.391,280.273,750.977
1706145456.711,112.793,33.691,29.297,29.297,404.785
1706145456.715,-399.414,27.832,29.785,-243.652,-552.246
1706145456.701,-105.957,27.832,21.484,-42.480,-498.047
1706145456.705,375.488,32.715,18.066,261.230,533.203
1706145456.709,232.910,35.645,25.391,108.887,607.910
1706145456.713,-312.500,29.785,28.809,-211.426,-316.895
1706145456.717,-240.723,27.832,24.414,-121.582,-623.047
1706145456.721,257.324,33.691,23.926,201.172,201.660
1706145456.725,357.910,37.598,27.832,204.590,784.180
1706145456.728,-156.250,33.691,27.344,-119.629,-80.078
1706145456.732,-348.633,27.832,24.414,-195.801,-750.488
1706145456.736,125.000,34.668,23.926,116.211,-123.047
1706145456.740,444.824,38.574,25.879,265.625,821.777
1706145456.744,16.113,32.715,29.785,-25.391,183.105
1706145456.761,-402.344,24.902,28.809,-235.840,-690.918
1706145456.765,-13.184,23.438,27.344,29.785,-306.152
1706145456.769,435.547,28.809,30.762,280.273,695.312
1706145456.773,145.508,28.320,34.668,49.805,435.547
1706145456.777,-382.812,22.461,32.227,-233.887,-544.922
1706145456.781,-139.648,22.461,21.973,-49.316,-550.293
1706145456.785,342.773,29.785,18.066,263.184,481.445
1706145456.788,264.160,35.645,26.855,151.855,621.094
1706145456.792,-273.438,28.809,33.691,-168.457,-406.738
1706145456.796,-262.695,19.531,31.738,-142.578,-704.590
1706145456.800,223.633,23.926,29.785,169.922,162.109
1706145456.804,373.047,27.344,30.273,218.262,807.129
1706145456.806,-104.980,23.926,32.227,-96.191,-19.043
1706145456.810,-358.887,23.926,27.832,-208.008,-759.277
1706145456.814,83.984,29.297,22.949,98.633,-157.227
1706145456.818,440.918,31.738,25.879,289.062,838.867
1706145456.822,73.242,31.738,33.203,3.906,292.480
1706145456.826,-375.000,28.809,30.273,-239.258,-610.840
1706145456.830,-44.434,29.785,23.926,7.812,-333.008
1706145456.833,414.062,35.156,26.855,283.203,694.824
1706145456.837,176.758,37.598,31.738,83.984,526.855
1706145456.841,-367.188,31.250,28.809,-214.355,-457.031
1706145456.845,-175.781,27.832,25.391,-82.031,-551.270
1706145456.849,323.242,34.180,25.391,232.422,446.289
1706145456.851,304.688,38.086,29.297,163.086,709.473
1706145456.855,-229.492,35.156,29.785,-170.898,-209.473
1706145456.859,-292.969,31.250,21.484,-163.574,-657.715
1706145456.863,194.824,36.133,19.043,163.574,49.805
1706145456.867,421.387,39.551,24.414,247.559,810.059
1706145456.871,-54.199,33.203,32.227,-69.336,73.730
1706145456.875,-396.484,25.879,27.832,-229.980,-687.500
1706145456.878,41.504,28.320,22.949,66.406,-205.566
1706145456.882,457.031,34.668,24.902,273.926,783.691
1706145456.886,98.633,31.250,28.320,-2.441,349.609
1706145456.890,-392.090,26.367,27.344,-240.234,-577.148
1706145456.894,-75.684,27.832,25.391,2.441,-403.320
1706145456.896,397.461,31.250,25.879,284.180,620.117
1706145456.900,208.008,30.273,31.738,102.051,552.246
1706145456.904,-346.680,23.926,31.250,-209.961,-380.859
1706145456.908,-208.008,21.484,21.484,-104.980,-579.102
1706145456.912,288.574,24.902,22.949,219.238,285.645
1706145456.916,333.496,29.297,30.273,194.824,737.305
1706145456.920,-187.988,27.832,30.762,-139.648,-179.688
1706145456.923,-340.820,22.949,24.902,-185.547,-747.070
1706145456.927,129.395,28.320,25.391,138.672,-61.523
1706145456.931,414.551,33.691,30.273,255.859,816.895
1706145456.935,-10.742,29.297,36.621,-49.805,161.133
1706145456.939,-391.602,22.461,36.621,-226.074,-642.090
1706145456.941,6.836,26.855,29.785,50.781,-208.984
1706145456.945,435.059,32.227,29.785,279.785,769.531
1706145456.949,111.328,30.762,34.668,36.621,384.277
1706145456.953,-390.625,25.391,31.738,-228.516,-627.930
1706145456.957,-106.445,27.344,23.926,-32.715,-528.809
1706145456.961,380.859,35.645,25.391,269.043,540.527
1706145456.965,251.953,36.133,31.738,128.418,606.445
1706145456.968,-299.805,28.320,33.203,-198.242,-382.324
1706145456.972,-234.375,24.902,25.879,-120.117,-663.086
1706145456.976,247.070,29.785,22.949,211.914,226.074
1706145456.980,352.051,31.250,25.879,214.844,771.973
1706145456.984,-144.531,27.832,31.250,-119.141,-89.844
1706145456.987,-339.355,25.879,31.250,-198.730,-720.703
1706145456.991,125.000,30.273,27.344,108.887,-74.707
1706145456.995,436.523,34.668,32.227,259.277,840.332
1706145456.999,15.625,29.297,37.109,-26.367,229.492
1706145457.003,-400.391,22.461,29.297,-236.816,-620.117
1706145457.007,-15.625,24.414,23.926,19.531,-281.738
1706145457.011,426.270,31.738,27.344,271.973,729.980
1706145457.014,148.438,32.227,35.156,48.828,437.012
1706145457.018,-371.582,26.855,33.691,-238.770,-504.395
1706145457.022,-139.160,27.344,24.414,-59.570,-492.188
1706145457.026,342.773,32.715,23.926,252.441,458.496
1706145457.030,256.836,32.227,27.832,138.672,666.504
1706145457.032,-283.203,27.344,28.809,-187.012,-264.160
1706145457.036,-275.391,25.879,24.414,-141.602,-644.043
1706145457.040,212.891,31.250,23.438,181.152,123.047
1706145457.044,379.395,35.156,26.367,220.215,754.395
1706145457.048,-104.492,33.203,24.414,-97.168,-30.273
1706145457.052,-366.211,28.809,16.602,-211.914,-747.070
1706145457.056,83.984,31.250,17.578,88.379,-210.938
1706145457.059,447.266,37.598,26.855,269.531,802.734
1706145457.063,57.129,33.203,33.203,-2.930,294.922
1706145457.067,-401.855,24.902,29.297,-234.375,-657.227
1706145457.071,-42.969,25.879,23.926,7.324,-396.973
1706145457.075,418.945,30.273,21.973,282.227,636.230
1706145457.076,188.965,31.738,25.391,77.637,494.629
1706145457.080,-344.727,28.320,27.344,-217.285,-459.473
1706145457.084,-171.875,28.809,22.461,-68.359,-551.270
1706145457.088,328.613,36.133,21.973,233.398,406.250
1706145457.092,314.453,38.086,28.320,157.715,695.801
1706145457.096,-223.633,33.203,33.691,-163.574,-254.883
1706145457.100,-287.598,27.832,28.320,-168.457,-689.453
1706145457.103,190.430,30.762,20.020,153.809,63.965
1706145457.107,412.109,35.156,20.996,244.629,821.777
1706145457.111,-55.176,30.273,26.367,-69.824,89.844
1706145457.115,-380.859,23.926,21.973,-220.703,-688.965
1706145457.119,50.293,27.344,19.531,69.336,-214.355
1706145457.136,453.125,33.203,26.367,272.949,804.199
1706145457.140,85.938,29.297,31.738,5.859,341.309
1706145457.144,-409.180,25.391,29.785,-236.328,-621.582
1706145457.148,-80.566,28.320,21.973,-5.371,-434.570
1706145457.152,394.043,31.738,20.996,268.066,573.242
1706145457.156,201.172,32.227,27.832,92.773,554.688
1706145457.160,-340.820,27.832,29.785,-208.984,-390.137
1706145457.163,-202.148,26.855,27.344,-99.121,-608.398
1706145457.167,293.945,33.691,25.879,222.656,306.641
1706145457.171,332.520,35.645,31.250,183.105,715.332
1706145457.175,-187.988,27.832,32.715,-153.320,-180.176
1706145457.179,-320.801,20.508,27.344,-183.105,-706.543
1706145457.181,152.832,27.832,27.832,140.625,-14.160
1706145457.185,425.293,34.180,30.273,254.395,845.703
1706145457.189,-20.508,28.320,33.691,-46.387,168.457
1706145457.193,-403.320,22.461,29.785,-230.469,-655.273
1706145457.197,24.902,27.344,23.438,43.457,-231.934
1706145457.201,452.148,33.691,24.414,280.273,766.602
1706145457.205,115.234,36.133,24.902,38.086,417.969
1706145457.208,-385.254,31.250,23.438,-220.215,-550.781
1706145457.212,-108.887,26.367,24.902,-22.949,-490.234
1706145457.216,363.281,26.855,31.738,259.766,506.348
1706145457.220,221.191,24.414,41.992,115.723,567.383
1706145457.224,-312.988,19.531,41.016,-208.008,-350.586
1706145457.226,-242.188,20.020,29.297,-136.230,-645.508
1706145457.230,241.699,26.367,26.855,187.500,217.285
1706145457.234,353.516,30.273,33.691,199.219,796.387
1706145457.238,-146.484,28.320,37.598,-118.652,-87.891
1706145457.242,-350.586,26.855,30.762,-192.871,-696.289
1706145457.246,113.770,31.250,25.879,121.094,-69.336
1706145457.250,436.523,32.715,27.832,275.391,821.777
1706145457.253,26.367,27.344,31.250,-21.484,231.445
1706145457.257,-392.090,20.996,28.320,-235.840,-629.395
1706145457.261,-21.973,23.438,22.949,24.414,-334.473
1706145457.265,421.875,27.832,26.855,284.668,682.617
1706145457.269,147.949,28.320,31.250,58.105,464.355
1706145457.272,-377.441,23.926,26.855,-233.887,-503.418
1706145457.276,-144.531,21.973,23.438,-58.105,-582.031
1706145457.280,352.539,29.785,26.367,252.930,423.340
1706145457.284,286.133,34.180,28.809,146.973,659.180
1706145457.288,-269.043,27.832,27.832,-184.082,-296.387
1706145457.292,-280.762,25.879,21.484,-153.809,-676.758
1706145457.296,217.773,34.180,20.996,175.781,101.562
1706145457.299,391.602,40.039,25.879,215.820,766.602
1706145457.303,-91.797,36.621,28.320,-104.980,-9.766
1706145457.307,-353.027,29.297,23.926,-212.891,-683.594
1706145457.311,81.055,32.227,21.973,85.449,-122.559
1706145457.315,429.199,36.133,23.926,270.508,799.316
1706145457.316,46.387,29.785,27.344,-0.977,261.230
1706145457.320,-408.691,25.391,28.320,-229.004,-662.109
1706145457.324,-51.270,30.762,26.367,3.906,-383.301
1706145457.328,410.156,35.156,28.809,274.414,705.078
1706145457.332,178.711,34.180,32.227,74.707,508.301
1706145457.336,-356.445,25.391,31.738,-229.980,-477.051
1706145457.340,-172.852,22.949,27.832,-83.984,-542.969
1706145457.343,320.312,32.715,27.832,234.863,387.207
1706145457.347,292.480,37.109,32.227,163.086,658.691
1706145457.351,-234.863,32.227,34.180,-161.133,-289.062
1706145457.355,-298.828,30.762,29.785,-160.645,-706.543
1706145457.359,177.246,32.227,27.832,162.598,61.035
1706145457.361,409.668,33.203,27.832,242.188,811.035
1706145457.365,-52.734,30.762,25.391,-75.684,92.773
1706145457.369,-376.465,25.391,23.438,-222.656,-666.016
1706145457.373,45.410,28.320,23.926,72.266,-175.293
1706145457.377,425.293,33.203,26.367,279.297,803.223
1706145457.381,74.219,29.785,29.297,7.324,359.375
1706145457.385,-405.762,22.461,29.297,-242.676,-544.922
1706145457.388,-88.867,21.484,23.926,-20.020,-404.297
1706145457.392,385.254,28.320,22.461,255.371,581.543
1706145457.396,191.406,30.762,28.320,82.520,554.199
1706145457.400,-347.168,22.949,28.809,-222.168,-352.051
1706145457.404,-211.426,20.020,21.484,-109.863,-570.312
1706145457.422,284.668,27.344,20.508,217.773,279.297
1706145457.426,327.148,32.715,26.367,182.617,741.211
1706145457.430,-205.078,28.320,28.809,-152.344,-144.043
1706145457.434,-323.242,25.391,23.438,-194.824,-692.871
1706145457.438,153.320,30.273,24.414,130.859,-1.953
1706145457.442,410.645,33.203,28.809,260.742,826.660
1706145457.446,-26.367,29.785,29.297,-41.016,130.371
1706145457.449,-392.578,23.438,25.879,-228.516,-697.754
1706145457.453,15.625,28.809,23.926,45.898,-253.418
1706145457.457,436.523,35.156,25.391,285.156,734.375
1706145457.461,111.328,31.250,28.320,39.551,393.066
1706145457.465,-390.137,24.414,28.809,-235.840,-554.688
1706145457.451,-97.656,24.414,25.391,-38.574,-508.301
1706145457.455,373.535,29.297,24.414,258.301,517.090
1706145457.459,230.469,29.297,23.438,117.676,596.191
1706145457.463,-304.199,23.438,23.438,-186.523,-398.438
1706145457.467,-230.469,20.508,20.996,-108.887,-714.355
1706145457.471,267.578,26.855,20.020,204.102,209.473
1706145457.475,372.070,31.738,22.949,208.008,777.344
1706145457.478,-143.555,30.273,26.367,-111.816,-88.867
1706145457.482,-344.238,27.832,21.973,-186.523,-683.594
1706145457.486,128.418,34.180,18.555,120.605,-81.543
1706145457.490,453.613,38.086,20.996,263.672,812.012
1706145457.494,42.969,32.227,21.973,-33.203,198.730
1706145457.497,-386.230,27.344,20.508,-233.398,-680.176
1706145457.501,-22.461,32.227,16.602,32.715,-316.895
1706145457.505,427.246,37.109,20.020,277.832,699.707
1706145457.509,146.973,33.691,29.297,49.805,473.145
1706145457.513,-380.371,27.832,33.691,-235.840,-425.781
1706145457.517,-140.137,27.832,27.344,-57.129,-458.984
1706145457.521,359.863,30.273,24.902,253.906,469.238
1706145457.524,282.715,31.738,28.320,143.066,681.152
1706145457.528,-264.160,31.250,26.855,-179.688,-294.434
1706145457.532,-248.047,28.320,24.414,-140.137,-695.312
1706145457.536,236.816,33.691,26.367,184.570,131.348
1706145457.540,379.395,37.109,29.297,230.469,798.340
1706145457.556,-107.910,30.273,28.809,-86.914,-12.695
1706145457.560,-372.070,26.367,24.902,-207.520,-657.227
1706145457.564,79.102,31.738,24.902,88.867,-115.723
1706145457.568,446.777,35.156,25.391,275.391,811.035
1706145457.572,62.500,32.227,26.367,-6.836,277.344
1706145457.576,-396.484,28.320,25.879,-241.699,-645.996
1706145457.580,-48.828,29.785,24.414,9.277,-367.188
1706145457.583,414.551,32.227,24.414,282.227,661.621
1706145457.587,185.059,31.738,27.344,85.938,536.621
1706145457.591,-357.422,26.855,24.414,-210.449,-448.730
1706145457.595,-165.039,25.879,17.090,-78.613,-589.844
1706145457.599,323.242,32.227,20.508,237.793,373.535
1706145457.601,292.969,36.133,27.344,166.992,681.152
1706145457.605,-237.305,30.273,28.320,-162.598,-229.980
1706145457.609,-293.945,26.367,24.902,-158.203,-705.566
1706145457.613,191.406,32.715,22.949,166.992,25.391
1706145457.617,405.273,36.133,26.367,252.441,806.641
1706145457.621,-54.199,30.762,30.762,-62.988,26.367
1706145457.625,-377.441,24.414,27.344,-229.980,-753.418
1706145457.628,45.410,28.320,25.879,60.547,-226.074
1706145457.632,457.520,34.668,27.344,278.809,784.180
1706145457.636,102.539,31.738,29.785,9.277,360.352
1706145457.640,-405.273,26.367,28.809,-241.699,-580.078
1706145457.644,-86.914,29.785,23.438,-11.230,-435.547
1706145457.646,389.160,34.180,23.438,272.461,584.961
1706145457.650,205.078,34.668,28.320,95.703,597.168
1706145457.654,-333.008,31.738,29.785,-201.660,-338.867
1706145457.658,-202.637,27.344,24.414,-95.703,-589.844
1706145457.662,292.480,31.738,24.414,212.891,293.457
1706145457.666,338.379,40.039,29.297,189.453,717.285
1706145457.670,-183.594,35.156,30.762,-132.812,-184.082
1706145457.673,-323.242,30.762,24.414,-177.246,-724.609
1706145457.677,151.367,36.133,21.973,135.742,-54.199
1706145457.681,428.223,37.598,27.344,255.859,812.988
1706145457.685,0.000,34.180,27.832,-42.480,178.223
1706145457.689,-381.836,28.809,22.461,-232.422,-624.023
1706145457.691,3.418,32.227,18.555,36.133,-223.145
1706145457.695,433.594,37.109,18.555,271.973,769.531
1706145457.699,121.582,36.133,20.508,30.762,399.902
1706145457.703,-375.000,30.762,20.508,-237.793,-541.016
1706145457.707,-92.773,30.762,16.113,-43.457,-475.586
1706145457.711,391.113,36.621,17.578,255.371,515.137
1706145457.715,254.395,37.598,23.926,112.305,582.031
1706145457.718,-299.805,32.227,25.391,-210.938,-385.254
1706145457.722,-231.445,30.273,20.020,-127.930,-682.617
1706145457.726,260.254,35.156,17.090,199.707,205.078
1706145457.730,354.980,33.691,22.949,200.684,776.855
1706145457.734,-164.551,28.320,28.809,-124.512,-54.199
1706145457.737,-366.699,25.879,27.344,-210.938,-669.922
1706145457.741,102.051,30.273,24.902,100.098,-88.379
1706145457.745,427.246,35.645,27.344,255.371,800.293
1706145457.749,16.602,32.227,30.273,-41.504,215.820
1706145457.753,-407.227,26.855,27.832,-247.070,-620.117
1706145457.757,-31.250,30.762,23.926,23.926,-319.824
1706145457.761,411.133,32.715,24.414,279.297,674.805
1706145457.764,138.672,31.738,26.855,44.434,411.621
1706145457.768,-385.254,28.809,26.367,-238.281,-550.781
1706145457.772,-148.438,27.344,22.949,-53.711,-547.852
1706145457.776,358.887,32.227,23.438,256.348,445.312
1706145457.780,271.484,33.203,31.250,143.066,624.512
1706145457.781,-286.133,28.809,32.227,-192.383,-363.770
1706145457.785,-282.715,27.344,21.973,-163.086,-711.914
1706145457.789,212.402,30.273,22.949,166.016,145.996
1706145457.793,387.207,33.691,26.855,225.098,809.082
1706145457.797,-98.633,30.762,24.902,-94.238,-7.324
1706145457.801,-371.582,25.879,23.926,-216.309,-712.891
1706145457.805,67.871,31.250,23.438,87.891,-199.219
1706145457.808,431.152,34.668,23.926,265.625,781.250
1706145457.812,54.688,31.738,26.855,-15.625,276.855
1706145457.816,-397.461,27.832,24.414,-244.141,-626.953
1706145457.820,-39.551,30.273,20.996,-1.465,-315.918
1706145457.824,424.316,33.203,21.973,267.090,681.152
1706145457.826,180.176,31.250,25.879,71.289,525.391
1706145457.830,-360.840,28.320,26.367,-223.145,-437.988
1706145457.834,-174.316,27.344,20.020,-81.055,-539.551
1706145457.838,323.242,31.250,19.531,232.910,395.508
1706145457.842,311.523,35.645,24.902,157.227,674.316
1706145457.846,-226.562,34.180,26.367,-168.945,-242.676
1706145457.850,-294.922,29.297,24.902,-168.945,-688.965
1706145457.853,191.406,33.203,23.438,148.926,35.156
1706145457.857,408.203,37.109,24.414,239.258,851.074
1706145457.861,-60.547,30.762,26.855,-61.035,97.168
1706145457.865,-380.859,24.902,25.391,-210.938,-717.773
1706145457.869,50.293,29.785,24.414,71.289,-220.703
1706145457.887,441.406,34.668,24.902,274.902,804.688
1706145457.891,91.797,31.738,26.367,9.766,348.633
1706145457.895,-387.207,26.367,22.949,-236.328,-592.773
1706145457.899,-69.824,28.320,17.090,-5.371,-399.902
1706145457.903,398.926,34.180,20.508,280.273,639.160
1706145457.907,208.984,33.203,25.879,102.539,537.598
1706145457.911,-331.543,28.320,27.832,-204.590,-443.359
1706145457.914,-193.848,29.297,23.438,-93.262,-609.863
1706145457.918,299.805,33.203,21.484,222.656,295.410
1706145457.922,337.402,33.691,26.367,190.918,711.426
1706145457.926,-188.965,27.832,30.762,-131.348,-236.816
1706145457.930,-317.383,23.926,29.297,-162.598,-775.879
1706145457.931,156.738,30.273,27.832,151.367,-40.039
1706145457.935,428.223,30.273,29.785,251.953,824.707
1706145457.939,-3.906,24.414,34.180,-40.527,121.582
1706145457.943,-389.160,17.578,29.297,-218.750,-690.430
1706145457.947,11.230,18.555,20.996,45.410,-212.891
1706145457.951,436.035,26.855,22.949,276.367,769.531
1706145457.955,119.141,27.344,30.762,36.133,428.223
1706145457.958,-389.160,21.973,33.691,-228.516,-480.957
1706145457.962,-112.305,22.461,29.785,-29.785,-417.969
1706145457.966,371.582,29.297,31.250,268.066,525.391
1706145457.970,234.375,31.250,34.668,113.281,604.492
1706145457.974,-312.500,27.344,32.227,-207.031,-312.500
1706145457.976,-246.094,27.344,25.879,-131.348,-614.258
1706145457.980,255.859,31.250,22.949,193.359,214.844
1706145457.984,362.793,33.691,26.367,208.984,755.371
1706145457.988,-150.391,27.344,30.273,-121.582,-68.848
1706145457.992,-357.422,23.926,28.320,-205.566,-655.273
1706145457.996,98.145,30.762,27.832,106.445,-50.781
1706145458.000,424.805,36.621,28.809,258.301,821.289
1706145458.003,17.090,34.668,29.785,-29.297,211.914
1706145458.007,-399.414,26.855,26.855,-247.070,-640.625
1706145458.011,-20.508,29.785,21.973,3.906,-280.762
1706145458.015,416.992,33.203,21.973,272.461,702.148
1706145458.019,144.043,32.227,28.809,53.711,495.117
1706145458.022,-373.047,31.250,31.738,-235.840,-450.195
1706145458.026,-138.184,32.715,27.344,-62.012,-510.742
1706145458.030,346.680,37.598,26.855,241.699,455.566
1706145458.034,276.855,38.574,28.809,137.207,600.098
1706145458.038,-264.648,34.180,29.785,-183.105,-357.910
1706145458.042,-272.461,30.273,25.879,-143.066,-704.590
1706145458.046,218.262,35.156,23.438,184.082,122.559
1706145458.049,382.324,37.109,24.902,228.516,767.578
1706145458.053,-99.609,36.133,24.414,-96.191,-44.434
1706145458.057,-357.422,34.668,20.508,-219.238,-770.020
1706145458.061,98.633,39.551,19.043,88.379,-181.641
1706145458.065,454.102,42.480,24.902,281.738,823.242
1706145458.067,49.316,35.156,32.715,-6.836,274.414
1706145458.071,-416.504,24.902,33.691,-245.605,-687.012
1706145458.075,-65.430,23.926,27.344,1.465,-391.113
1706145458.079,404.785,29.785,28.320,264.160,661.133
1706145458.083,168.945,33.203,32.227,62.012,481.934
1706145458.087,-372.559,29.785,25.879,-226.562,-435.059
1706145458.091,-182.129,27.344,20.020,-83.496,-530.762
1706145458.094,319.336,34.668,22.949,223.633,355.469
1706145458.098,298.340,38.086,28.809,153.809,670.410
1706145458.102,-234.375,31.738,30.762,-161.133,-250.000
1706145458.106,-295.898,26.367,25.391,-161.621,-715.820
1706145458.110,182.129,30.762,23.438,149.902,31.250
1706145458.112,404.297,32.715,25.879,231.445,797.852
1706145458.116,-57.617,27.832,31.250,-67.871,96.191
1706145458.120,-386.230,25.879,25.879,-213.379,-645.996
1706145458.124,50.781,28.809,20.020,76.172,-158.691
1706145458.128,457.520,34.180,27.344,285.645,794.922
1706145458.132,110.840,36.133,33.203,21.484,388.672
1706145458.136,-381.836,31.250,27.832,-228.027,-538.574
1706145458.139,-73.242,31.250,23.438,-6.348,-383.301
1706145458.143,401.367,38.086,23.438,273.438,613.770
1706145458.147,213.867,36.621,26.855,102.051,562.500
1706145458.151,-331.543,29.785,27.344,-200.195,-424.805
1706145458.155,-204.102,26.367,22.461,-97.656,-656.250
1706145458.157,292.480,30.273,22.949,217.773,274.902
1706145458.161,347.656,34.668,26.367,194.824,713.867
1706145458.165,-175.781,28.320,29.785,-126.465,-163.086
1706145458.169,-320.312,22.461,24.902,-170.410,-726.562
1706145458.173,147.461,29.297,18.555,136.719,-67.383
1706145458.177,429.688,34.180,21.484,248.535,808.105
1706145458.181,-6.836,30.762,25.391,-55.176,146.484
1706145458.184,-391.113,24.902,20.020,-234.863,-659.180
1706145458.188,12.695,28.809,18.555,42.969,-267.090
1706145458.192,431.152,34.668,21.973,279.297,703.125
1706145458.196,115.234,30.273,24.414,28.809,375.488
1706145458.200,-402.344,20.508,23.926,-242.188,-604.492
1706145458.202,-127.441,20.996,17.578,-34.668,-529.785
1706145458.206,368.164,29.297,19.043,263.184,505.859
1706145458.210,245.117,29.785,28.809,125.488,585.449
1706145458.214,-296.875,24.902,27.344,-186.035,-290.527
1706145458.218,-237.305,20.508,20.508,-119.141,-641.602
1706145458.222,249.512,24.902,23.438,190.918,157.227
1706145458.226,361.816,31.738,27.832,199.707,747.559
1706145458.229,-134.277,29.297,26.367,-119.629,-71.777
1706145458.233,-349.609,26.855,22.949,-202.148,-664.551
1706145458.237,103.027,31.250,23.438,108.398,-83.496
1706145458.241,435.059,33.203,24.414,272.461,796.875
1706145458.245,27.832,28.809,26.367,-21.484,242.188
1706145458.262,-395.020,22.949,25.879,-237.305,-594.238
1706145458.266,-18.066,26.855,23.926,20.020,-296.875
1706145458.270,428.223,34.668,25.879,277.832,683.105
1706145458.274,154.297,33.203,28.320,54.688,444.336
1706145458.278,-373.535,26.855,25.879,-233.398,-500.000
1706145458.282,-144.043,25.391,25.391,-60.547,-532.715
1706145458.286,342.773,27.832,28.809,241.211,410.645
1706145458.289,279.297,31.250,32.227,131.348,616.699
1706145458.293,-256.348,25.879,29.785,-185.547,-319.336
1706145458.297,-276.367,22.461,27.344,-141.113,-685.547
1706145458.301,218.262,28.809,29.785,179.688,125.977
1706145458.305,399.902,32.227,31.250,216.309,790.527
1706145458.306,-87.402,28.809,30.273,-103.027,17.578
1706145458.310,-357.910,24.414,25.879,-213.867,-708.008
1706145458.314,82.031,29.297,23.438,92.773,-165.039
1706145458.318,445.801,33.203,25.879,273.438,801.758
1706145458.322,63.477,26.855,29.785,-4.883,261.719
1706145458.326,-403.320,21.973,30.762,-228.027,-618.652
1706145458.330,-42.969,28.809,29.785,13.184,-375.488
1706145458.333,428.711,34.668,26.855,276.367,624.512
1706145458.337,179.688,32.227,29.297,79.590,525.391
1706145458.341,-355.469,24.902,30.762,-210.449,-402.344
1706145458.345,-169.434,25.391,26.855,-68.359,-532.715
1706145458.349,328.613,32.715,27.832,242.188,379.395
1706145458.351,321.777,35.156,29.297,179.688,682.129
1706145458.355,-216.309,29.297,28.809,-145.508,-232.422
1706145458.359,-287.109,25.879,22.949,-159.180,-680.664
1706145458.363,194.824,32.715,23.438,160.645,49.805
1706145458.367,417.480,36.133,28.809,251.953,791.016
1706145458.371,-52.246,31.250,29.785,-57.617,74.219
1706145458.375,-377.930,26.367,28.320,-211.426,-620.117
1706145458.378,48.340,30.762,27.344,75.195,-169.922
1706145458.382,444.824,37.109,27.832,284.180,745.117
1706145458.386,100.586,36.133,32.715,20.020,308.594
1706145458.390,-390.625,26.855,31.738,-236.816,-549.316
1706145458.394,-79.590,25.879,24.902,-20.020,-326.660
1706145458.396,384.277,30.273,26.367,265.625,564.453
1706145458.400,198.730,28.320,33.203,100.098,552.246
1706145458.404,-328.125,23.926,30.762,-206.543,-335.449
1706145458.408,-205.566,22.949,23.438,-98.145,-580.078
1706145458.412,286.133,30.762,22.461,224.609,256.348
1706145458.416,338.379,34.668,30.273,191.406,664.551
1706145458.420,-185.547,29.785,34.668,-132.812,-126.953
1706145458.423,-317.383,26.367,30.273,-170.410,-637.207
1706145458.427,160.156,32.715,25.879,146.484,-33.203
1706145458.431,427.246,38.574,27.344,260.254,802.246
1706145458.435,-6.348,33.203,31.738,-41.504,150.391
1706145458.439,-379.883,28.320,28.320,-224.609,-671.875
1706145458.441,19.043,31.250,24.414,48.340,-274.902
1706145458.445,445.801,34.668,28.809,287.598,716.797
1706145458.449,127.441,31.738,35.645,43.457,350.098
1706145458.453,-385.254,27.344,34.668,-234.863,-564.941
1706145458.457,-113.770,28.320,26.855,-34.668,-442.383
1706145458.461,369.629,31.250,25.879,274.414,516.113
1706145458.465,247.070,30.273,32.715,129.395,561.523
1706145458.468,-304.688,23.438,32.227,-197.266,-370.605
1706145458.472,-246.582,21.973,22.949,-126.953,-641.113
1706145458.476,247.070,30.273,22.461,199.707,185.059
1706145458.480,372.559,37.598,27.344,216.309,734.863
1706145458.484,-124.512,36.621,29.297,-97.656,-101.074
1706145458.488,-339.844,28.320,26.367,-177.734,-614.746
1706145458.492,115.723,26.855,28.320,118.164,-6.836
1706145458.496,437.500,25.879,37.109,261.719,791.992
1706145458.500,25.391,22.461,40.527,-28.809,197.754
1706145458.504,-402.832,20.020,35.645,-240.723,-629.395
1706145458.508,-27.344,21.484,30.273,14.160,-284.668
1706145458.512,410.156,26.855,26.367,279.297,696.777
1706145458.515,133.789,28.320,30.273,60.059,412.598
1706145458.519,-381.348,22.461,33.203,-222.656,-572.266
1706145458.523,-141.113,24.902,25.879,-48.340,-522.461
1706145458.527,357.422,31.738,21.973,248.047,447.266
1706145458.531,282.227,33.203,29.785,143.066,627.930
1706145458.531,-265.137,31.250,34.180,-170.410,-252.930
1706145458.535,-273.438,27.344,27.832,-138.184,-649.414
1706145458.539,213.867,29.785,24.414,182.617,116.699
1706145458.543,386.230,34.668,26.855,229.492,787.598
1706145458.547,-90.820,35.156,30.273,-95.215,12.695
1706145458.551,-354.004,31.738,24.414,-216.797,-607.910
1706145458.555,91.797,35.156,22.461,76.172,-144.043
1706145458.558,459.961,39.551,23.926,258.789,716.797
1706145458.562,68.359,36.133,28.320,-13.672,259.277
1706145458.566,-399.414,28.320,27.832,-242.676,-595.703
1706145458.570,-38.574,31.250,20.020,2.930,-336.426
1706145458.574,419.922,37.109,21.973,279.785,622.559
1706145458.576,180.664,34.668,31.738,89.355,503.418
1706145458.580,-354.980,28.809,35.156,-208.984,-420.410
1706145458.584,-172.852,25.879,29.785,-79.590,-548.340
1706145458.588,318.848,31.738,30.273,228.516,360.352
1706145458.592,303.711,33.691,37.109,165.039,643.555
1706145458.596,-221.191,29.785,40.527,-146.484,-274.902
1706145458.600,-291.992,28.809,32.227,-157.227,-717.285
1706145458.603,188.965,35.645,28.320,160.156,34.180
1706145458.607,416.504,39.062,31.738,245.117,809.082
1706145458.611,-49.316,34.668,32.715,-67.871,96.191
1706145458.615,-378.418,29.297,30.762,-215.332,-636.719
1706145458.619,44.434,31.738,29.785,64.941,-156.250
1706145458.636,451.172,36.621,30.273,275.879,767.578
1706145458.640,94.727,32.227,32.715,25.391,311.523
1706145458.644,-413.574,26.367,31.250,-229.980,-614.746
1706145458.648,-92.773,26.367,24.902,-23.926,-410.645
1706145458.652,387.207,28.809,25.391,258.301,582.031
1706145458.656,202.148,29.297,32.715,98.145,534.180
1706145458.660,-340.820,24.902,31.250,-210.938,-370.117
1706145458.663,-206.055,27.344,25.879,-107.910,-577.637
1706145458.667,290.527,32.227,31.250,216.797,299.805
1706145458.671,336.426,31.738,37.109,192.383,723.145
1706145458.675,-183.105,27.832,35.645,-134.277,-165.527
1706145458.679,-326.172,23.926,28.320,-183.594,-664.551
1706145458.681,149.414,30.762,25.391,129.395,-8.301
1706145458.685,416.992,33.691,27.344,248.535,793.457
1706145458.689,-31.738,28.809,25.391,-56.152,153.320
1706145458.693,-399.414,26.367,21.973,-234.863,-655.273
1706145458.697,14.648,30.273,24.902,48.828,-260.254
1706145458.701,443.359,32.715,29.785,279.297,710.938
1706145458.705,128.906,30.273,30.762,33.203,374.512
1706145458.708,-379.395,25.879,26.367,-233.398,-477.539
1706145458.712,-101.074,26.855,23.438,-35.645,-433.594
1706145458.716,380.371,30.762,25.879,258.301,458.984
1706145458.720,248.047,32.227,31.738,119.141,580.078
1706145458.724,-290.527,27.832,32.227,-187.988,-289.551
1706145458.727,-232.422,23.926,24.414,-115.723,-573.242
1706145458.731,255.859,29.785,21.973,201.172,210.938
1706145458.735,377.441,35.645,26.367,204.102,741.211
1706145458.739,-133.789,31.250,27.344,-116.699,-113.281
1706145458.743,-352.051,24.414,24.414,-196.777,-699.219
1706145458.747,108.887,26.367,21.484,108.398,-100.098
1706145458.751,441.895,31.738,23.438,263.672,763.672
1706145458.754,31.738,29.297,27.344,-25.879,208.496
1706145458.758,-398.926,21.973,26.367,-239.746,-564.941
1706145458.762,-16.602,25.391,23.438,20.996,-212.891
1706145458.766,425.293,31.250,25.391,282.715,695.801
1706145458.770,160.156,30.762,28.809,61.523,422.852
1706145458.771,-357.422,26.367,27.344,-229.980,-474.609
1706145458.775,-145.508,27.344,21.484,-57.617,-450.684
1706145458.779,343.750,30.273,21.973,252.441,446.777
1706145458.783,277.832,31.738,29.785,143.555,637.207
1706145458.787,-266.113,27.832,32.227,-170.410,-253.418
1706145458.791,-276.855,24.414,28.320,-138.672,-681.152
1706145458.795,204.590,32.227,31.250,176.270,83.496
1706145458.798,380.371,36.621,33.203,231.445,739.258
1706145458.802,-92.773,32.715,33.691,-81.543,2.441
1706145458.806,-370.117,27.832,31.738,-201.660,-651.855
1706145458.810,67.871,31.738,26.367,94.727,-164.551
1706145458.814,439.453,38.086,26.367,273.926,794.922
1706145458.816,58.105,33.203,31.250,-10.254,282.715
1706145458.820,-395.996,27.832,30.762,-248.047,-581.543
1706145458.824,-46.387,31.250,24.902,0.000,-307.129
1706145458.828,403.809,33.691,25.391,276.367,645.996
1706145458.832,171.387,32.715,30.273,73.242,474.121
1706145458.836,-362.793,28.320,30.762,-219.727,-458.008
1706145458.840,-182.129,26.855,22.949,-83.984,-504.883
1706145458.843,308.105,31.738,20.996,221.680,365.723
1706145458.847,302.734,32.715,26.855,152.344,596.191
1706145458.851,-228.516,28.809,27.344,-166.504,-222.168
1706145458.855,-312.500,23.926,20.996,-162.109,-646.484
1706145458.859,170.410,27.832,20.020,150.391,42.969
1706145458.861,401.855,33.203,23.438,232.910,801.270
1706145458.865,-59.570,29.297,28.320,-74.219,60.059
1706145458.869,-392.578,23.926,27.344,-228.516,-673.340
1706145458.873,35.645,26.367,22.461,58.594,-178.711
1706145458.877,430.176,30.273,24.902,272.949,771.484
1706145458.881,85.938,30.273,32.715,20.508,367.676
1706145458.885,-391.113,28.809,32.227,-230.469,-557.617
1706145458.888,-76.660,29.297,26.367,-17.090,-414.062
1706145458.892,398.438,35.645,26.367,269.043,566.895
1706145458.896,217.773,37.598,31.250,97.656,522.461
1706145458.900,-331.055,33.691,32.715,-209.961,-362.305
1706145458.904,-212.402,29.297,28.320,-100.098,-583.008
1706145458.906,287.598,30.762,25.391,215.332,241.699
1706145458.910,351.074,35.645,31.250,194.336,695.801
1706145458.914,-172.852,31.738,36.133,-125.488,-163.574
1706145458.918,-328.125,26.367,28.320,-181.641,-707.520
1706145458.922,151.367,31.250,24.414,128.418,-65.430
1706145458.926,432.129,34.180,26.855,258.789,765.625
1706145458.930,-14.160,31.738,31.250,-38.086,112.305
1706145458.933,-393.066,28.320,28.320,-230.957,-628.906
1706145458.937,14.648,28.320,23.926,43.945,-225.586
1706145458.941,436.035,32.227,24.414,285.645,703.125
1706145458.945,124.512,31.250,27.832,42.480,395.996
1706145458.949,-381.836,26.855,27.832,-230.469,-502.441
1706145458.952,-110.352,26.855,24.414,-34.180,-408.203
1706145458.956,375.000,31.250,28.320,266.602,527.832
1706145458.960,249.023,33.203,34.180,125.488,560.059
1706145458.964,-295.410,30.273,36.621,-195.312,-342.285
1706145458.968,-237.793,28.320,29.785,-124.023,-606.445
1706145458.972,258.301,33.691,26.855,204.102,205.566
1706145458.976,375.488,38.086,33.691,214.844,694.336
1706145458.979,-130.859,36.621,33.203,-109.375,-74.219
1706145458.983,-338.867,31.738,23.926,-189.453,-610.352
1706145458.987,112.305,34.180,20.996,112.305,-74.707
1706145458.991,431.152,37.109,27.832,259.277,803.223
1706145458.995,20.996,28.809,34.668,-31.738,222.656
1706145459.011,-405.273,22.461,32.715,-239.746,-656.738
1706145459.015,-26.855,25.879,25.391,25.391,-334.961
1706145459.019,425.293,31.250,27.832,279.297,650.391
1706145459.023,152.832,31.738,35.156,53.711,419.434
1706145459.027,-374.512,28.809,33.691,-227.051,-461.914
1706145459.031,-144.043,28.809,26.367,-56.152,-479.492
1706145459.035,340.820,32.227,23.926,244.629,416.992
1706145459.038,270.020,35.645,29.297,144.043,630.859
1706145459.042,-260.254,29.297,30.762,-177.246,-284.668
1706145459.046,-278.809,24.414,20.996,-147.461,-680.664
1706145459.050,207.031,27.832,20.020,174.805,92.285
1706145459.054,391.113,31.250,28.809,229.492,762.695
1706145459.056,-90.820,30.762,32.715,-86.426,10.742
1706145459.060,-368.652,27.344,26.855,-206.543,-666.016
1706145459.064,75.684,29.785,20.508,93.262,-146.484
1706145459.068,444.824,30.762,21.484,273.926,783.691
1706145459.072,62.988,28.320,27.832,0.977,339.844
1706145459.076,-398.926,27.832,28.320,-227.539,-531.250
1706145459.080,-53.223,30.273,23.438,5.859,-362.793
1706145459.083,415.039,34.668,22.461,273.438,600.098
1706145459.087,195.312,34.668,27.832,79.590,498.047
1706145459.091,-346.191,27.832,27.832,-219.727,-405.273
1706145459.095,-184.082,26.367,22.461,-87.891,-531.250
1706145459.099,309.082,28.320,21.973,229.980,358.887
1706145459.101,310.547,25.391,28.320,172.852,691.406
1706145459.105,-217.285,24.414,33.691,-148.438,-205.566
1706145459.109,-292.969,26.855,31.738,-158.691,-683.594
1706145459.113,186.523,31.738,32.227,157.715,37.598
1706145459.117,418.945,34.668,32.715,248.047,763.672
1706145459.121,-37.109,31.738,33.203,-59.082,64.941
1706145459.125,-379.883,26.855,30.762,-212.891,-639.648
1706145459.128,36.621,29.297,26.367,69.336,-207.031
1706145459.132,441.895,35.156,24.414,276.367,727.539
1706145459.136,95.215,33.691,26.367,17.090,284.668
1706145459.140,-397.949,27.344,26.367,-227.539,-620.117
1706145459.144,-81.055,29.297,22.949,-6.836,-395.020
1706145459.146,391.113,33.691,24.902,268.555,568.359
1706145459.150,212.891,33.203,32.715,96.680,512.695
1706145459.154,-315.430,30.762,35.645,-211.914,-432.617
1706145459.158,-194.336,30.273,28.320,-101.562,-637.207
1706145459.162,284.180,33.691,25.879,222.656,282.715
1706145459.166,327.637,33.691,27.832,192.383,732.910
1706145459.170,-192.871,28.809,26.367,-134.766,-142.578
1706145459.173,-343.262,24.902,21.973,-184.570,-677.246
1706145459.177,138.184,29.297,21.484,127.930,-41.992
1706145459.181,425.781,35.645,24.414,250.977,772.461
1706145459.185,-14.648,32.227,27.832,-42.480,156.738
1706145459.189,-393.555,28.320,25.391,-224.121,-640.625
1706145459.192,10.254,29.785,23.438,41.504,-284.180
1706145459.196,439.941,33.691,24.902,273.438,699.219
1706145459.200,135.254,33.691,25.879,38.086,403.320
1706145459.204,-386.230,25.391,27.832,-231.445,-548.828
1706145459.208,-108.887,28.809,22.949,-33.691,-501.953
1706145459.212,376.953,35.156,21.484,263.184,502.930
1706145459.216,248.047,33.203,28.809,123.047,579.102
1706145459.219,-292.480,28.809,30.273,-191.895,-350.586
1706145459.223,-245.117,27.832,24.414,-127.930,-614.746
1706145459.227,249.512,33.203,19.531,193.848,207.031
1706145459.231,370.605,34.668,20.020,208.496,758.789
1706145459.235,-134.277,30.273,25.879,-115.723,-61.523
1706145459.236,-342.285,27.832,27.344,-205.566,-627.441
1706145459.240,115.234,30.273,23.926,99.121,-52.246
1706145459.244,441.895,32.715,24.902,265.625,808.594
1706145459.248,45.898,31.250,25.879,-24.414,204.102
1706145459.252,-389.648,26.367,22.461,-236.816,-652.344
1706145459.256,-35.645,27.832,19.531,24.902,-276.367
1706145459.260,416.992,29.785,22.461,271.484,692.383
1706145459.263,147.461,28.809,30.762,42.480,457.031
1706145459.267,-377.930,26.367,30.273,-244.141,-512.695
1706145459.271,-150.391,27.344,25.879,-65.430,-510.742
1706145459.275,339.844,30.762,24.902,249.023,458.984
1706145459.279,277.344,30.762,29.785,145.508,626.465
1706145459.282,-256.836,27.832,27.832,-177.246,-309.570
1706145459.286,-272.949,25.879,20.020,-152.344,-663.574
1706145459.290,205.078,30.762,22.461,167.480,134.277
1706145459.294,388.672,34.180,26.367,220.703,763.184
1706145459.298,-89.844,30.762,28.320,-91.797,-7.324
1706145459.302,-374.023,25.879,26.367,-213.379,-631.836
1706145459.306,60.547,29.785,24.902,81.055,-131.836
1706145459.309,441.895,36.133,29.297,267.090,760.254
1706145459.313,72.266,34.180,32.715,-9.766,283.691
1706145459.317,-399.414,27.832,29.785,-241.699,-581.055
1706145459.321,-48.828,29.785,24.414,-9.766,-322.754
1706145459.325,413.086,33.691,25.391,265.137,657.227
1706145459.326,183.105,35.156,31.738,78.125,528.320
1706145459.330,-358.398,32.227,30.273,-217.773,-441.895
1706145459.334,-183.105,29.785,22.461,-81.055,-585.449
1706145459.338,312.500,33.691,21.973,228.516,361.816
1706145459.342,310.547,34.180,28.809,166.016,678.223
1706145459.346,-215.820,29.297,28.320,-152.344,-228.027
1706145459.350,-303.223,25.879,22.949,-169.922,-650.879
1706145459.353,184.082,29.785,24.414,154.297,97.656
1706145459.357,413.086,33.691,26.855,255.371,829.590
1706145459.361,-52.734,31.738,31.250,-67.383,90.332
1706145459.365,-381.836,26.367,29.785,-222.168,-607.910
1706145459.369,39.062,28.320,25.879,70.801,-182.617
1706145459.386,446.289,34.180,29.297,280.762,741.699
1706145459.390,101.074,32.227,38.086,25.879,343.750
1706145459.394,-385.742,26.855,37.598,-225.586,-553.223
1706145459.398,-82.031,27.832,29.297,-14.160,-385.254
1706145459.402,388.672,32.227,29.297,274.414,553.223
1706145459.406,215.332,34.180,34.668,117.676,540.039
1706145459.410,-334.473,28.809,32.715,-204.102,-376.465
1706145459.413,-217.773,26.855,24.414,-111.328,-617.188
1706145459.417,285.156,33.203,20.508,212.402,266.602
1706145459.421,338.379,36.133,29.297,188.965,702.148
1706145459.425,-178.223,30.762,37.598,-128.418,-138.672
1706145459.429,-323.730,26.855,30.273,-175.293,-656.250
1706145459.431,130.859,30.273,27.832,132.812,-40.527
1706145459.435,417.969,34.180,27.344,252.441,770.020
1706145459.439,-2.441,31.738,30.762,-47.852,182.129
1706145459.443,-388.184,24.902,31.250,-232.910,-556.641
1706145459.447,-0.977,30.762,25.879,44.434,-213.379
1706145459.451,423.828,36.133,27.344,285.645,724.609
1706145459.455,118.652,34.668,30.273,38.086,365.723
1706145459.458,-390.625,29.297,25.879,-247.559,-583.984
1706145459.462,-114.258,25.391,18.066,-47.852,-519.043
1706145459.466,379.883,32.227,18.555,253.418,461.426
1706145459.470,256.836,35.645,27.344,108.398,587.402
1706145459.474,-289.551,29.297,29.785,-205.566,-313.477
1706145459.476,-233.398,27.832,22.461,-128.906,-639.648
1706145459.480,255.859,33.691,21.973,197.266,175.293
1706145459.484,370.117,33.691,29.297,210.449,771.484
1706145459.488,-130.859,28.809,27.832,-108.887,-60.547
1706145459.492,-350.098,26.855,23.438,-195.801,-645.996
1706145459.496,93.262,28.809,26.367,102.051,-55.176
1706145459.500,417.480,29.297,26.855,262.207,765.625
1706145459.503,14.160,25.391,31.738,-20.020,204.590
1706145459.507,-411.621,21.484,31.250,-236.816,-635.742
1706145459.511,-32.227,25.879,25.879,20.996,-322.754
1706145459.515,427.246,32.715,26.855,280.273,669.434
1706145459.519,160.156,32.715,30.273,63.965,479.980
1706145459.522,-377.441,24.902,31.738,-230.957,-420.410
1706145459.526,-149.902,25.879,29.785,-62.988,-481.934
1706145459.530,347.168,33.203,28.809,252.441,437.012
1706145459.534,283.203,33.691,30.762,144.531,630.859
1706145459.538,-252.930,32.227,34.180,-172.363,-247.070
1706145459.542,-269.043,27.832,26.367,-141.602,-626.953
1706145459.546,207.520,29.785,21.973,176.270,80.078
1706145459.549,390.137,35.156,28.320,235.352,753.418
1706145459.553,-94.238,31.250,28.320,-82.520,3.906
1706145459.557,-376.465,28.320,27.344,-211.426,-644.531
1706145459.561,73.242,34.668,25.391,86.914,-113.281
1706145459.565,443.359,37.598,23.438,276.855,753.906
1706145459.566,67.871,35.645,29.785,3.906,287.598
1706145459.570,-391.602,29.785,28.809,-231.445,-547.852
1706145459.574,-40.527,31.738,24.902,16.602,-323.242
1706145459.578,428.223,38.574,26.855,294.434,612.305
1706145459.582,189.941,39.551,31.250,89.355,487.793
1706145459.586,-354.004,33.203,44.434,-214.355,-377.441
1706145459.590,-168.945,30.762,29.297,-76.660,-552.734
1706145459.593,323.730,35.156,18.555,231.934,287.109
1706145459.597,310.059,34.668,33.203,164.062,617.188
1706145459.601,-229.004,29.785,33.203,-159.180,-221.680
1706145459.605,-315.918,25.879,25.391,-167.480,-655.273
1706145459.609,168.945,29.785,23.926,155.273,5.859
1706145459.611,414.551,39.062,34.180,249.023,739.258
1706145459.615,-41.504,37.598,38.574,-60.547,55.176
1706145459.619,-380.859,27.832,30.762,-222.656,-663.086
1706145459.623,37.598,24.414,18.555,58.105,-235.352
1706145459.627,443.359,28.809,18.555,275.391,731.934
1706145459.631,101.562,30.762,30.762,24.414,335.938
1706145459.635,-389.160,25.391,33.691,-231.934,-569.336
1706145459.638,-83.496,28.320,26.367,-15.625,-430.664
1706145459.642,392.090,33.203,25.879,268.066,521.484
1706145459.646,219.238,33.203,30.273,100.098,516.602
1706145459.650,-330.566,30.762,33.691,-205.566,-408.691
1706145459.654,-204.590,30.273,27.344,-112.305,-635.742
1706145459.657,289.551,35.645,25.391,216.309,248.535
1706145459.661,338.867,38.086,34.180,202.148,704.102
1706145459.665,-172.852,33.691,33.691,-133.789,-152.344
1706145459.669,-327.148,28.320,24.902,-186.523,-639.160
1706145459.673,136.230,29.297,24.902,126.465,-7.324
1706145459.677,427.246,34.668,30.762,250.000,780.762
1706145459.681,-5.371,31.250,33.691,-42.969,144.043
1706145459.684,-390.137,22.949,30.273,-225.586,-621.094
1706145459.688,6.836,24.902,27.832,43.945,-230.957
1706145459.692,427.734,31.738,27.832,275.391,708.496
1706145459.696,119.629,32.227,29.785,34.668,367.188
1706145459.700,-387.207,25.391,30.762,-237.793,-580.078
1706145459.701,-110.352,27.344,26.855,-44.434,-514.648
1706145459.705,370.117,34.180,27.344,259.277,485.840
1706145459.709,248.047,34.668,33.203,127.930,591.797
1706145459.713,-297.363,29.297,37.109,-185.547,-349.609
1706145459.717,-249.023,24.902,30.762,-123.047,-623.047
1706145459.721,249.023,31.250,29.297,195.312,209.961
1706145459.725,374.512,33.691,35.645,213.379,705.566
1706145459.728,-117.676,27.344,36.621,-107.910,-96.680
1706145459.732,-330.566,27.344,26.855,-192.871,-666.992
1706145459.736,125.977,36.133,21.973,127.930,-86.426
1706145459.740,456.543,36.133,33.203,296.875,780.273
1706145459.744,27.832,25.879,44.434,-10.742,247.070
1706145459.776,-406.250,19.043,42.969,-239.258,-604.980
1706145459.780,-23.926,20.020,38.574,20.020,-356.934
1706145459.784,428.223,23.926,38.574,276.855,628.418
1706145459.788,154.785,25.391,40.527,55.176,453.125
1706145459.792,-384.766,20.020,39.062,-231.445,-463.379
1706145459.796,-155.762,20.508,33.691,-65.918,-521.973
1706145459.800,335.449,28.320,30.273,238.281,427.734
1706145459.803,273.438,29.297,37.109,144.531,649.414
1706145459.807,-254.395,24.414,41.016,-172.852,-284.668
1706145459.811,-271.484,21.484,30.273,-143.555,-663.574
1706145459.815,203.125,25.391,24.902,178.223,135.742
1706145459.819,387.695,33.691,26.855,228.516,767.578
1706145459.806,-95.703,29.785,28.320,-90.332,-32.715
1706145459.810,-382.324,21.973,31.738,-217.773,-666.992
1706145459.814,66.406,27.344,31.250,81.055,-119.629
1706145459.818,439.453,33.203,33.203,274.902,771.484
1706145459.822,59.082,29.785,32.715,0.977,296.875
1706145459.826,-401.367,23.926,28.320,-236.328,-551.758
1706145459.830,-50.781,26.855,30.273,1.465,-333.008
1706145459.833,416.992,32.227,31.738,270.020,630.371
1706145459.837,185.547,30.273,35.156,76.660,499.512
1706145459.841,-362.793,22.461,34.668,-212.891,-437.500
1706145459.845,-190.430,20.996,30.762,-79.102,-560.059
1706145459.849,310.547,27.344,31.738,226.562,365.234
1706145459.851,307.129,28.809,31.250,167.969,726.074
1706145459.855,-223.145,21.484,32.715,-155.762,-143.555
1706145459.859,-309.082,20.508,29.785,-167.480,-654.297
1706145459.863,170.410,30.762,26.367,157.227,25.879
1706145459.867,411.621,34.180,29.785,252.441,777.832
1706145459.871,-48.340,26.855,33.691,-56.641,71.777
1706145459.875,-388.184,20.020,29.785,-219.238,-631.836
1706145459.878,33.691,23.438,24.414,59.570,-165.039
1706145459.882,438.477,26.367,25.879,273.926,749.512
1706145459.886,96.191,27.344,27.344,17.578,320.312
1706145459.890,-395.996,25.879,26.367,-236.816,-535.645
1706145459.894,-87.402,26.855,22.949,-16.602,-337.891
1706145459.896,393.066,32.715,22.949,271.484,595.703
1706145459.900,232.910,34.668,32.227,104.004,550.293
1706145459.904,-317.383,28.809,36.621,-201.172,-397.461
1706145459.908,-219.727,25.391,29.297,-99.121,-628.418
1706145459.912,280.273,30.762,22.461,215.332,262.695
1706145459.916,339.355,35.156,26.855,193.848,680.176
1706145459.920,-180.176,32.715,31.738,-129.883,-158.203
1706145459.923,-333.984,26.855,23.926,-184.570,-653.809
1706145459.927,134.766,29.785,19.043,122.070,-34.668
1706145459.931,419.922,34.668,18.555,246.094,802.734
1706145459.935,-14.648,30.273,22.949,-47.363,170.898
1706145459.939,-405.273,23.926,28.320,-228.027,-646.973
1706145459.941,-3.418,29.785,29.785,42.480,-259.766
1706145459.945,430.664,38.574,31.738,271.973,746.094
1706145459.949,120.605,34.180,28.809,31.250,416.992
1706145459.953,-393.066,25.879,24.902,-233.398,-531.738
1706145459.957,-123.535,28.809,21.973,-41.016,-478.027
1706145459.961,365.234,35.645,20.508,251.953,485.840
1706145459.965,243.652,36.621,25.879,119.629,573.242
1706145459.968,-299.316,33.203,27.832,-196.777,-317.383
1706145459.972,-241.699,29.785,22.461,-130.371,-608.398
1706145459.976,243.164,32.715,22.949,187.500,188.965
1706145459.980,359.863,36.133,24.902,199.707,757.812
1706145459.984,-137.207,33.691,22.949,-110.840,-70.312
1706145459.986,-359.375,30.273,22.461,-198.730,-704.102
1706145459.990,91.309,36.133,25.391,98.633,-93.750
1706145459.994,429.199,40.527,28.809,267.578,795.898
1706145459.998,34.668,37.109,30.273,-14.160,220.703
1706145460.002,-389.648,28.809,29.297,-233.887,-591.797
1706145460.006,-21.484,26.855,21.484,16.113,-294.922
1706145460.010,423.828,33.203,16.602,271.973,642.090
1706145460.013,153.809,32.227,25.391,60.547,426.270
1706145460.017,-371.094,27.344,27.832,-224.609,-474.121
1706145460.021,-141.602,27.344,25.879,-53.223,-544.434
1706145460.025,339.844,30.762,23.926,252.441,392.090
1706145460.029,268.066,33.203,25.391,142.578,616.699
1706145460.031,-271.484,29.297,27.832,-181.152,-257.812
1706145460.035,-284.180,22.461,17.578,-157.715,-662.598
1706145460.039,203.125,26.855,16.113,163.086,98.633
1706145460.043,385.254,34.180,25.391,223.145,794.922
1706145460.047,-83.984,30.273,26.367,-84.961,28.809
1706145460.051,-364.258,24.414,22.949,-202.637,-659.180
1706145460.055,68.848,28.320,24.902,93.262,-183.105
1706145460.058,440.918,32.715,25.879,273.438,757.812
1706145460.062,68.359,29.297,30.762,-3.418,291.992
1706145460.066,-403.320,24.414,27.344,-235.840,-599.121
1706145460.070,-63.965,27.344,17.578,-0.488,-381.836
1706145460.074,409.668,36.133,21.484,278.320,607.422
1706145460.076,186.523,37.598,24.902,89.355,504.395
1706145460.080,-357.422,28.320,21.973,-214.844,-449.707
1706145460.084,-184.570,25.879,21.484,-81.055,-548.340
1706145460.088,313.965,31.738,24.902,229.980,389.648
1706145460.092,322.266,34.668,26.367,167.969,663.086
1706145460.096,-208.496,30.762,29.297,-151.855,-201.172
1706145460.100,-296.387,25.879,24.902,-167.480,-635.254
1706145460.103,190.430,30.273,27.344,147.461,41.992
1706145460.107,418.457,37.109,38.086,242.676,819.336
1706145460.111,-43.457,34.180,34.180,-58.594,83.984
1706145460.115,-370.605,24.902,21.973,-220.703,-648.926
1706145460.119,46.387,27.344,23.926,58.105,-188.965
1706145460.122,438.965,33.691,28.320,271.973,738.281
1706145460.126,97.168,34.668,29.785,15.625,306.152
1706145460.130,-399.902,30.273,28.809,-229.492,-654.785
1706145460.134,-88.379,30.762,22.949,-13.672,-465.820
1706145460.138,395.020,35.645,21.973,268.066,580.078
1706145460.142,217.773,36.133,31.738,98.633,542.969
1706145460.146,-320.801,30.762,33.203,-208.984,-398.438
1706145460.149,-197.754,29.785,29.785,-101.074,-586.914
1706145460.153,288.574,35.156,35.156,222.656,300.781
1706145460.157,346.191,35.156,36.621,201.172,730.469
1706145460.161,-169.434,30.273,31.738,-133.789,-125.488
1706145460.165,-320.801,26.855,28.809,-190.918,-635.254
1706145460.181,149.902,31.250,29.297,126.953,9.766
1706145460.185,427.734,38.574,34.668,256.836,811.523
1706145460.189,-9.766,34.668,40.527,-39.062,121.094
1706145460.193,-382.812,25.879,36.621,-226.562,-682.129
1706145460.197,16.602,28.320,29.297,38.086,-238.770
1706145460.201,434.082,34.180,24.902,275.879,703.125
1706145460.205,125.488,34.180,33.203,41.504,366.211
1706145460.208,-392.090,28.809,35.156,-228.516,-504.883
1706145460.212,-118.652,29.297,25.391,-41.016,-445.801
1706145460.216,376.465,36.133,29.297,255.859,505.859
1706145460.220,252.441,37.598,37.598,122.070,600.098
1706145460.224,-291.016,31.738,41.016,-187.988,-342.773
1706145460.226,-231.934,26.855,33.203,-109.863,-646.484
1706145460.230,253.418,31.250,28.809,208.496,204.590
1706145460.234,370.605,36.133,35.645,217.285,755.859
1706145460.238,-125.977,32.227,38.574,-106.934,-70.801
1706145460.242,-354.004,24.902,34.180,-200.684,-625.977
1706145460.246,105.957,28.809,29.785,112.305,-59.082
1706145460.250,447.266,34.668,25.879,275.879,780.273
1706145460.253,45.898,32.715,31.738,-14.648,228.516
1706145460.257,-387.695,29.785,33.203,-223.145,-648.438
1706145460.261,-20.508,29.297,28.320,28.809,-342.285
1706145460.265,434.570,32.227,30.762,280.273,682.617
1706145460.269,167.969,32.227,37.109,65.430,486.816
1706145460.271,-372.559,27.832,38.574,-226.074,-496.094
1706145460.275,-146.484,29.297,33.203,-55.176,-541.504
1706145460.279,348.633,36.621,33.203,258.789,449.707
1706145460.283,283.691,37.109,38.086,164.062,650.391
1706145460.287,-248.535,26.367,37.109,-155.762,-277.344
1706145460.291,-274.902,22.461,31.738,-147.461,-649.414
1706145460.295,205.566,27.344,28.320,170.898,122.559
1706145460.298,388.672,29.785,25.391,233.398,750.000
1706145460.302,-87.891,28.320,29.297,-85.449,5.859
1706145460.306,-360.352,23.438,28.809,-207.520,-651.367
1706145460.310,78.613,23.438,23.926,91.309,-153.320
1706145460.314,449.219,27.832,23.926,274.902,753.418
1706145460.316,67.871,28.320,26.855,2.441,261.230
1706145460.320,-395.996,25.391,28.809,-228.027,-602.539
1706145460.324,-54.199,26.855,26.855,10.254,-340.820
1706145460.328,409.180,32.227,24.414,278.809,641.113
1706145460.332,186.035,32.227,32.227,83.984,524.902
1706145460.336,-354.004,22.949,35.156,-214.844,-420.410
1706145460.340,-180.176,24.902,26.367,-83.984,-543.457
1706145460.343,319.336,33.203,26.367,231.934,362.305
1706145460.347,310.547,31.250,36.133,168.945,675.781
1706145460.351,-220.215,28.320,33.691,-148.926,-207.031
1706145460.355,-302.734,26.855,20.996,-160.156,-693.848
1706145460.359,173.828,28.809,25.391,146.973,25.879
1706145460.361,409.180,32.227,33.203,237.305,782.715
1706145460.365,-51.270,31.250,38.086,-59.570,60.547
1706145460.369,-388.184,25.391,26.855,-212.891,-654.297
1706145460.373,38.574,26.855,18.555,64.941,-183.594
1706145460.377,440.918,32.227,23.926,276.367,780.762
1706145460.381,99.609,29.785,31.250,28.320,374.023
1706145460.385,-387.207,25.879,34.180,-229.980,-577.637
1706145460.388,-78.613,30.273,30.762,-27.832,-435.547
1706145460.392,409.668,35.156,30.273,258.301,573.730
1706145460.396,233.398,34.180,29.785,92.773,549.316
1706145460.400,-321.289,28.320,27.832,-216.797,-383.301
1706145460.404,-206.543,25.391,27.832,-111.328,-559.570
1706145460.406,292.969,30.762,32.227,213.379,302.734
1706145460.410,355.957,32.715,36.621,199.219,737.305
1706145460.414,-168.457,27.344,35.156,-125.977,-140.137
1706145460.418,-333.984,23.926,32.227,-184.082,-706.055
1706145460.422,130.371,29.785,29.785,125.488,-43.457
1706145460.426,420.410,31.250,29.785,257.812,789.551
1706145460.430,-1.953,27.344,36.133,-36.133,163.574
1706145460.433,-385.742,26.855,37.109,-226.562,-620.605
1706145460.437,-1.465,28.809,30.762,49.805,-237.793
1706145460.441,441.895,33.691,29.297,282.715,747.070
1706145460.445,135.254,34.180,32.227,34.668,383.789
1706145460.449,-391.602,26.367,27.832,-238.770,-553.223
1706145460.452,-123.047,24.902,25.391,-41.016,-449.219
1706145460.456,358.398,29.297,27.832,261.230,528.809
1706145460.460,239.258,31.738,31.738,123.535,599.609
1706145460.464,-303.223,28.320,29.297,-194.824,-335.938
1706145460.468,-247.559,25.879,18.555,-130.371,-568.848
1706145460.472,257.812,31.250,21.484,189.453,249.512
1706145460.476,360.352,32.227,34.668,206.055,702.637
1706145460.479,-159.180,25.879,39.551,-113.770,-118.164
1706145460.483,-349.609,24.902,30.273,-191.406,-665.039
1706145460.487,122.559,32.227,24.414,122.559,-80.078
1706145460.491,436.035,35.645,31.250,265.137,793.457
1706145460.495,20.996,30.273,34.668,-28.809,189.941
1706145460.511,-410.645,22.949,36.133,-242.676,-643.555
1706145460.515,-45.898,23.926,38.574,7.324,-294.434
1706145460.519,415.039,31.250,38.574,270.996,670.898
1706145460.523,148.926,29.297,38.574,48.828,433.594
1706145460.527,-386.230,19.043,30.762,-245.605,-488.281
1706145460.531,-163.086,17.578,24.414,-75.684,-496.094
1706145460.535,331.543,28.320,26.855,236.328,438.477
1706145460.538,272.461,32.227,19.043,138.672,634.277
1706145460.542,-261.719,24.902,20.508,-184.082,-228.516
1706145460.546,-275.879,23.438,29.297,-146.973,-583.984
1706145460.550,207.520,28.809,32.715,174.316,130.859
1706145460.554,387.695,32.227,36.133,214.844,774.414
1706145460.556,-89.355,27.344,38.086,-90.820,30.273
1706145460.560,-363.281,23.438,29.785,-201.172,-669.922
1706145460.564,78.613,29.297,20.996,88.379,-166.992
1706145460.568,449.219,32.715,24.902,276.367,762.207
1706145460.572,72.754,27.832,38.086,1.953,334.961
1706145460.576,-376.953,22.949,37.598,-237.793,-526.367
1706145460.580,-35.156,27.344,27.344,5.371,-354.980
1706145460.583,412.109,34.668,26.855,279.297,632.324
1706145460.587,188.965,33.203,32.715,83.984,505.371
1706145460.591,-343.750,28.320,24.414,-205.566,-449.219
1706145460.595,-163.574,27.344,14.160,-65.918,-595.703
1706145460.599,330.566,33.691,22.949,241.211,312.500
1706145460.601,310.059,33.691,37.109,171.875,662.109
1706145460.605,-219.727,26.855,41.504,-151.367,-202.637
1706145460.609,-291.992,27.344,28.809,-158.691,-621.094
1706145460.613,191.406,31.738,20.508,157.715,76.660
1706145460.617,433.594,33.203,24.414,248.047,770.996
1706145460.621,-34.668,29.297,25.391,-54.688,93.262
1706145460.625,-370.605,27.344,20.508,-205.566,-597.168
1706145460.628,61.523,32.715,14.160,78.613,-173.340
1706145460.632,459.961,38.086,9.766,289.062,746.094
1706145460.636,106.934,37.598,27.832,19.531,340.332
1706145460.640,-377.930,33.691,35.645,-238.770,-504.883
1706145460.644,-67.383,35.645,14.648,-17.578,-391.113
1706145460.647,408.691,36.621,20.996,276.367,545.898
1706145460.651,233.398,36.133,38.574,109.863,559.570
1706145460.655,-320.312,28.320,31.250,-206.055,-413.574
1706145460.659,-198.242,23.926,29.297,-93.262,-608.398
1706145460.663,290.039,33.691,15.625,218.750,273.926
1706145460.667,336.914,34.668,14.648,185.059,686.035
1706145460.671,-176.270,27.832,27.344,-128.418,-140.625
1706145460.674,-329.102,27.344,21.973,-173.340,-647.461
1706145460.678,139.160,31.250,33.203,132.324,-19.531
1706145460.682,436.035,31.738,37.109,257.324,786.133
1706145460.686,8.789,35.645,32.227,-28.809,175.781
1706145460.690,-399.414,25.391,19.531,-216.797,-626.465
1706145460.692,-5.859,21.973,34.668,49.316,-279.297
1706145460.696,433.105,32.715,50.781,279.297,707.031
1706145460.700,124.512,33.691,42.969,33.203,403.809
1706145460.704,-381.348,24.902,38.086,-230.469,-529.297
1706145460.708,-102.051,23.438,30.273,-30.762,-505.371
1706145460.712,382.324,34.180,22.461,276.855,468.750
1706145460.716,250.488,36.133,25.391,146.484,551.758
1706145460.719,-287.598,34.668,8.789,-174.316,-384.277
1706145460.723,-222.168,36.621,-58.105,-111.328,-644.531
1706145460.727,270.020,43.457,-59.570,211.914,193.359
1706145460.731,374.023,27.832,-12.695,237.305,729.004
1706145460.735,-138.672,9.766,56.641,-91.309,-99.121
1706145460.736,-352.051,21.484,98.633,-199.219,-681.152
1706145460.740,111.816,29.785,53.223,102.051,-77.148
1706145460.744,447.266,30.762,59.570,265.137,796.875
1706145460.748,41.992,34.180,14.160,-9.766,187.012
1706145460.752,-395.020,28.320,1.953,-214.355,-651.367
1706145460.756,-26.855,24.414,85.449,30.273,-299.805
1706145460.760,427.246,29.297,74.219,271.973,674.316
1706145460.763,151.855,27.344,43.457,50.781,416.016
1706145460.767,-382.324,21.484,27.832,-226.562,-486.328
1706145460.771,-143.066,26.855,-8.789,-49.316,-492.188
1706145460.775,350.098,31.250,-27.832,260.742,416.016
1706145460.779,271.973,23.926,13.184,156.738,644.531
1706145460.782,-265.625,22.461,49.805,-168.457,-255.859
1706145460.786,-268.555,27.344,20.996,-140.137,-646.973
1706145460.790,224.609,29.785,10.254,184.570,106.445
1706145460.794,411.621,28.809,16.602,230.469,747.070
1706145460.798,-77.148,21.973,17.578,-87.402,-9.766
1706145460.802,-383.301,20.020,22.949,-215.332,-661.133
1706145460.806,64.453,27.344,9.766,81.055,-145.020
1706145460.809,443.359,38.086,-5.859,272.461,771.973
1706145460.813,57.617,36.133,10.742,-8.301,238.770
1706145460.817,-393.555,32.715,10.254,-230.957,-629.883
1706145460.821,-44.434,40.039,-16.113,4.883,-342.285
1706145460.825,407.715,35.645,-22.461,257.812,621.094
1706145460.827,184.082,30.273,7.324,75.684,504.395
1706145460.831,-345.215,29.297,20.996,-205.566,-429.688
1706145460.835,-171.875,23.926,0.488,-81.543,-567.383
1706145460.839,321.777,27.344,5.859,220.215,351.074
1706145460.843,319.824,37.598,8.789,167.969,650.391
1706145460.847,-219.238,35.645,5.371,-148.926,-177.734
1706145460.851,-314.453,23.438,22.461,-164.062,-633.301
1706145460.854,173.828,20.996,27.832,141.602,6.348
1706145460.858,416.504,28.809,16.602,238.281,770.020
1706145460.862,-51.270,27.832,10.742,-50.293,64.941
1706145460.866,-393.066,26.855,3.418,-214.844,-640.625
1706145460.870,42.480,38.574,11.719,61.523,-209.961
1706145460.872,448.242,41.016,16.602,282.227,728.027
1706145460.876,93.262,30.273,11.719,20.996,343.750
1706145460.880,-398.438,23.438,15.625,-243.652,-574.707
1706145460.884,-91.309,24.902,8.301,-32.227,-451.172
1706145460.888,387.207,33.691,-0.977,260.254,554.199
1706145460.892,211.914,39.062,5.859,104.492,548.340
1706145460.896,-320.801,31.738,16.602,-210.449,-369.141
1706145460.899,-199.707,23.926,17.090,-111.328,-584.473
1706145460.903,279.785,27.344,16.602,220.703,288.086
1706145460.907,333.008,29.297,29.785,190.918,724.121
1706145460.911,-185.059,28.809,44.434,-141.113,-144.043
1706145460.915,-324.707,26.855,30.762,-185.547,-667.480
1706145460.931,150.391,27.832,16.602,125.977,-28.809
1706145460.935,424.316,33.203,18.555,254.395,790.039
1706145460.939,-15.137,30.273,21.484,-27.344,148.438
1706145460.943,-401.855,22.461,28.320,-223.145,-608.887
1706145460.947,13.672,29.785,29.297,33.203,-222.656
1706145460.951,447.266,40.039,30.762,278.320,712.402
1706145460.955,115.723,39.062,32.715,36.133,382.812
1706145460.958,-398.438,31.250,31.738,-237.305,-549.805
1706145460.962,-107.422,36.133,23.438,-28.809,-489.258
1706145460.966,377.930,45.410,12.695,275.879,467.285
1706145460.970,253.418,42.480,26.855,121.582,598.145
1706145460.974,-289.551,35.156,33.203,-204.590,-337.402
1706145460.977,-252.441,34.668,29.785,-125.000,-624.512
1706145460.981,237.793,39.551,15.137,204.102,244.629
1706145460.985,366.699,38.086,8.789,218.750,759.277
1706145460.989,-141.113,28.809,27.344,-116.211,-58.105
1706145460.993,-352.539,21.973,37.598,-217.285,-685.059
1706145460.997,105.469,26.367,37.109,94.238,-115.723
1706145461.001,430.664,31.250,40.039,257.324,798.340
1706145461.004,47.363,36.621,43.457,-20.508,233.887
1706145461.008,-371.582,34.180,33.691,-220.703,-597.656
1706145461.012,-25.391,24.414,12.207,23.926,-298.340
1706145461.016,426.758,28.809,6.348,276.367,679.199
1706145461.020,166.504,35.156,21.484,58.594,455.078
1706145461.021,-363.770,30.273,17.578,-227.539,-472.656
1706145461.025,-138.672,26.367,30.273,-64.941,-484.375
1706145461.029,339.355,28.809,57.129,238.770,417.969
1706145461.033,266.602,30.273,44.434,144.043,608.887
1706145461.037,-262.207,28.320,29.785,-179.199,-287.109
1706145461.041,-269.531,25.879,23.438,-147.949,-687.988
1706145461.045,206.055,28.320,27.832,177.246,92.285
1706145461.048,390.625,31.738,40.527,221.680,748.047
1706145461.052,-83.984,27.344,37.598,-90.820,-23.438
1706145461.056,-358.887,29.297,0.000,-197.754,-646.973
1706145461.060,84.473,33.691,13.672,96.680,-118.164
1706145461.064,441.895,28.320,48.340,273.926,766.602
1706145461.066,65.430,26.855,32.715,4.883,258.789
1706145461.070,-383.789,23.926,25.391,-216.797,-639.648
1706145461.074,-44.922,28.320,25.391,5.859,-364.746
1706145461.078,414.551,31.738,22.461,262.207,671.875
1706145461.082,187.988,25.391,37.598,73.730,504.883
1706145461.086,-356.934,18.555,40.039,-220.703,-443.848
1706145461.090,-187.988,19.043,32.227,-83.008,-566.895
1706145461.093,303.223,24.414,30.762,218.262,347.656
1706145461.097,301.270,33.691,30.273,160.156,656.738
1706145461.101,-229.004,34.180,17.578,-148.438,-234.863
1706145461.105,-304.688,25.879,5.371,-159.668,-658.203
1706145461.109,186.035,28.320,27.344,165.039,76.172
1706145461.112,399.414,27.832,45.410,247.070,824.219
1706145461.116,-71.289,21.973,44.434,-78.125,78.613
1706145461.120,-393.555,22.461,41.016,-230.469,-690.918
1706145461.124,32.715,29.785,28.809,58.105,-186.035
1706145461.128,425.781,37.109,23.926,276.367,797.363
1706145461.132,84.961,32.715,30.273,19.043,363.770
1706145461.136,-391.113,21.973,21.484,-240.723,-531.250
1706145461.139,-78.125,28.320,6.348,-15.137,-385.254
1706145461.143,399.414,35.645,13.672,272.461,602.539
1706145461.147,211.914,29.297,50.293,101.074,554.688
1706145461.151,-333.984,9.766,61.035,-207.520,-437.012
1706145461.155,-200.195,6.348,41.016,-98.145,-604.492
1706145461.156,304.688,27.344,26.367,228.027,310.059
1706145461.160,342.773,41.992,26.367,191.406,753.418
1706145461.164,-194.824,37.109,31.250,-140.625,-145.508
1706145461.168,-330.566,30.273,1.465,-177.734,-659.180
1706145461.172,151.367,33.203,-4.395,143.066,15.625
1706145461.176,427.246,33.203,41.016,265.625,808.594
1706145461.180,9.277,30.762,46.387,-38.574,143.066
1706145461.183,-371.582,25.391,28.809,-225.586,-693.848
1706145461.187,11.719,21.484,27.344,45.898,-255.859
1706145461.191,441.895,22.949,36.621,287.598,750.488
1706145461.195,131.348,31.738,44.434,49.805,403.809
1706145461.199,-375.977,34.668,33.203,-224.121,-525.879
1706145461.202,-105.957,26.855,-0.977,-27.832,-485.352
1706145461.206,380.371,27.832,1.953,267.578,502.930
1706145461.210,261.719,28.320,43.945,121.094,618.164
1706145461.214,-283.691,24.902,36.133,-196.289,-331.543
1706145461.218,-234.863,19.531,13.184,-118.652,-654.785
1706145461.222,254.395,12.207,31.738,203.125,184.570
1706145461.226,371.094,19.531,39.551,214.355,719.727
1706145461.229,-129.395,29.785,31.738,-110.352,-120.117
1706145461.233,-345.703,29.785,24.902,-195.801,-694.336
1706145461.237,115.723,31.250,22.949,117.188,-90.820
1706145461.241,451.660,36.133,28.320,267.090,795.898
1706145461.245,37.109,35.645,29.297,-26.855,229.492
1706145461.261,-389.160,34.668,28.320,-231.934,-626.953
1706145461.265,-13.184,36.133,15.625,23.926,-341.797
1706145461.269,436.523,29.785,9.277,274.414,679.199
1706145461.273,175.781,25.391,33.203,48.828,471.191
1706145461.277,-356.934,21.973,45.410,-238.281,-498.535
1706145461.281,-141.113,18.555,31.250,-60.059,-571.289
1706145461.285,351.562,31.738,25.391,247.559,403.320
1706145461.288,284.180,39.062,34.668,141.602,641.113
1706145461.292,-252.930,31.250,30.762,-178.223,-273.438
1706145461.296,-270.020,26.855,20.020,-144.531,-663.574
1706145461.300,209.473,30.762,13.184,192.871,118.652
1706145461.304,390.137,38.086,15.625,240.234,799.805
1706145461.306,-85.449,31.738,32.715,-92.773,33.203
1706145461.310,-369.629,15.625,34.668,-213.867,-642.578
1706145461.314,62.012,14.160,29.785,89.355,-125.000
1706145461.318,437.500,20.020,22.461,274.414,804.688
1706145461.322,63.965,29.297,19.043,-7.324,267.090
1706145461.326,-402.832,34.180,30.273,-246.582,-624.512
1706145461.330,-62.988,26.367,28.320,-8.789,-370.117
1706145461.333,403.320,28.320,17.578,275.879,638.672
1706145461.337,181.152,38.574,31.250,84.961,538.574
1706145461.341,-346.680,36.133,29.297,-215.332,-435.547
1706145461.345,-168.457,27.344,12.207,-83.984,-589.844
1706145461.349,309.082,29.297,23.926,230.469,352.539
1706145461.353,293.457,34.180,41.016,170.898,684.570
1706145461.357,-221.191,36.621,30.762,-146.973,-210.449
1706145461.361,-289.551,28.809,-11.230,-164.551,-682.617
1706145461.365,179.199,20.020,-6.348,143.555,56.152
1706145461.369,399.414,21.973,41.504,242.676,814.941
1706145461.373,-67.871,19.531,65.430,-61.523,51.758
1706145461.377,-389.648,22.949,52.734,-227.539,-678.223
1706145461.380,30.273,33.203,37.109,51.270,-173.828
1706145461.384,430.176,39.062,34.180,270.508,782.227
1706145461.388,102.539,32.227,33.203,16.113,333.008
1706145461.392,-395.508,27.344,20.508,-231.934,-574.219
1706145461.396,-91.309,27.832,17.578,-8.301,-433.105
1706145461.397,394.043,33.691,28.809,273.926,559.082
1706145461.401,214.844,36.133,22.949,100.098,552.734
1706145461.405,-315.430,35.645,-9.277,-201.660,-363.770
1706145461.409,-199.707,36.133,-11.230,-93.262,-539.551
1706145461.413,282.715,35.645,29.785,218.750,311.035
1706145461.417,346.680,39.062,48.828,196.777,720.215
1706145461.421,-179.199,37.109,41.992,-129.883,-174.805
1706145461.424,-334.473,30.762,29.785,-184.570,-703.125
1706145461.428,155.273,38.086,12.695,137.695,-42.969
1706145461.432,445.801,44.434,12.207,275.879,769.043
1706145461.436,5.371,40.039,36.133,-28.320,138.184
1706145461.440,-385.742,20.508,41.504,-234.375,-702.637
1706145461.441,-7.324,15.137,31.250,37.598,-296.387
1706145461.445,412.598,31.738,28.809,279.785,756.836
1706145461.449,109.375,36.621,24.414,28.320,398.438
1706145461.453,-388.184,25.879,23.438,-241.699,-558.105
1706145461.457,-108.398,20.996,28.809,-38.574,-480.469
1706145461.461,383.301,33.691,11.719,260.254,518.066
1706145461.465,251.953,39.062,16.602,133.789,588.379
1706145461.468,-299.805,25.879,36.133,-179.688,-364.746
1706145461.472,-236.816,23.438,34.180,-113.770,-631.348
1706145461.476,256.348,31.738,17.090,197.754,204.102
1706145461.480,368.652,37.109,14.160,195.312,751.465
1706145461.484,-140.137,38.574,35.156,-127.441,-65.918
1706145461.486,-351.562,32.715,35.156,-201.660,-643.555
1706145461.490,115.723,36.621,24.902,118.164,-74.707
1706145461.494,447.754,33.203,20.020,277.832,810.547
1706145461.498,38.086,10.254,16.113,-16.602,229.980
1706145461.502,-382.812,22.949,22.949,-237.793,-626.953
1706145461.506,-17.090,44.434,24.902,15.625,-303.223
1706145461.510,427.734,47.363,23.438,283.203,689.453
1706145461.513,161.133,41.992,22.949,69.824,493.164
1706145461.517,-368.164,30.273,15.137,-234.863,-433.594
1706145461.521,-146.484,36.133,25.391,-73.730,-537.109
1706145461.525,338.379,41.504,20.996,243.652,385.742
1706145461.529,272.461,34.180,14.160,145.020,590.820
1706145461.532,-258.789,26.367,34.668,-179.199,-281.738
1706145461.536,-260.742,29.297,28.320,-148.438,-691.895
1706145461.540,234.375,31.738,13.672,170.410,69.824
1706145461.544,397.949,33.691,28.809,231.934,789.062
1706145461.548,-101.562,33.691,38.086,-70.801,0.977
1706145461.552,-364.746,29.297,30.762,-204.590,-658.203
1706145461.556,70.801,33.691,29.785,82.520,-132.324
1706145461.559,431.641,37.109,29.785,270.508,760.254
1706145461.563,62.012,33.203,29.297,-3.906,249.512
1706145461.567,-400.391,29.785,20.508,-244.629,-603.516
1706145461.571,-52.246,30.762,21.973,0.488,-336.914
1706145461.575,402.344,33.203,31.250,269.043,632.812
1706145461.577,156.738,34.668,39.551,61.523,505.371
1706145461.581,-375.000,32.227,36.621,-241.211,-439.941
1706145461.585,-204.102,30.762,24.414,-115.234,-566.406
1706145461.589,273.438,38.574,34.180,190.918,338.379
1706145461.593,271.484,46.875,46.875,134.766,677.246
1706145461.597,-251.953,45.898,44.434,-193.848,-211.426
1706145461.601,-342.773,38.574,37.109,-218.262,-660.645
1706145461.604,122.559,39.551,35.156,86.914,49.805
1706145461.608,354.980,47.363,33.203,187.012,798.828
1706145461.612,-108.398,48.340,33.691,-116.699,86.914
1706145461.616,-458.496,39.551,36.133,-296.387,-645.508
1706145461.620,-42.480,41.016,32.227,-11.719,-211.426
1706145461.636,363.770,50.293,30.762,208.008,715.332
1706145461.640,20.508,47.852,36.621,-52.246,331.055
1706145461.644,-470.215,38.086,36.621,-309.570,-539.551
1706145461.648,-147.461,43.457,31.250,-89.844,-421.875
1706145461.652,342.285,51.758,28.320,212.402,539.551
1706145461.656,166.504,46.875,25.879,50.293,512.695
1706145461.660,-386.719,39.551,21.973,-258.301,-420.898
1706145461.663,-253.418,37.598,22.461,-144.043,-602.539
1706145461.667,238.770,38.086,18.555,173.828,277.344
1706145461.671,284.180,34.668,23.926,157.227,705.078
1706145461.675,-204.590,31.250,29.297,-149.414,-143.066
1706145461.679,-329.590,26.367,18.066,-197.754,-656.738
1706145461.681,149.414,26.855,14.160,130.371,-22.949
1706145461.685,435.059,31.738,18.066,271.484,800.293
1706145461.689,2.930,28.809,20.020,-24.902,149.902
1706145461.693,-376.953,19.043,17.578,-208.008,-676.270
1706145461.697,22.949,3.906,14.648,63.965,-249.512
1706145461.701,461.426,12.207,13.184,301.270,748.535
1706145461.705,149.902,31.738,14.160,65.918,396.973
1706145461.708,-354.980,27.832,13.184,-201.660,-536.621
1706145461.712,-65.918,25.391,8.301,-2.441,-465.820
1706145461.716,403.809,28.809,9.277,294.922,490.723
1706145461.720,276.855,28.809,18.066,145.020,594.727
1706145461.724,-257.324,22.949,15.137,-170.410,-314.453
1706145461.726,-200.195,18.066,11.719,-93.262,-629.395
1706145461.730,279.785,24.414,20.996,227.051,204.590
1706145461.734,376.953,21.973,24.902,236.328,757.324
1706145461.738,-122.559,16.602,20.020,-86.426,-57.129
1706145461.742,-319.336,15.137,6.836,-167.480,-666.016
1706145461.746,137.695,19.531,2.930,136.719,-115.723
1706145461.750,455.566,26.367,11.719,284.668,793.457
1706145461.753,50.781,23.438,19.043,-4.883,235.840
1706145461.757,-369.141,19.043,17.578,-216.797,-625.488
1706145461.761,6.348,21.973,16.602,44.434,-312.988
1706145461.765,445.801,26.855,18.555,301.758,688.477
1706145461.769,176.758,26.367,20.020,90.820,463.379
1706145461.772,-334.473,20.020,22.949,-188.965,-516.602
1706145461.776,-118.164,19.531,21.484,-38.086,-553.223
1706145461.780,361.816,24.902,18.066,265.625,445.312
1706145461.784,294.434,29.785,26.855,166.016,638.184
1706145461.788,-238.770,27.832,19.531,-158.203,-283.691
1706145461.792,-247.070,18.555,0.488,-125.000,-658.203
1706145461.796,226.074,16.602,10.254,194.824,105.957
1706145461.799,399.414,26.855,27.344,243.652,753.906
1706145461.803,-75.195,27.832,28.320,-62.500,-1.953
1706145461.807,-351.074,22.461,13.184,-187.500,-628.418
1706145461.811,91.309,30.273,18.555,99.609,-111.328
1706145461.815,463.379,38.086,30.273,282.715,787.598
1706145461.817,84.961,34.668,27.344,5.859,311.523
1706145461.821,-379.395,27.344,20.996,-221.191,-557.129
1706145461.825,-36.133,27.344,17.578,22.461,-334.473
1706145461.829,428.711,29.297,20.508,289.551,636.719
1706145461.833,202.637,30.762,22.461,79.590,484.863
1706145461.837,-334.473,29.297,23.926,-217.285,-463.867
1706145461.841,-164.062,27.832,23.438,-64.453,-554.688
1706145461.844,330.078,32.715,7.812,254.395,359.863
1706145461.848,326.660,34.668,6.836,185.059,651.855
1706145461.852,-204.590,29.297,25.879,-151.367,-212.402
1706145461.856,-278.320,23.438,29.785,-165.527,-658.691
1706145461.860,199.707,29.297,26.855,167.969,38.086
1706145461.861,418.945,33.691,24.414,259.277,819.824
1706145461.865,-42.480,25.391,27.832,-52.246,36.133
1706145461.869,-363.281,20.996,26.367,-207.520,-723.633
1706145461.873,62.500,24.902,19.043,70.312,-197.754
1706145461.877,449.707,31.250,21.973,282.227,767.578
1706145461.881,92.285,28.320,23.926,21.973,336.426
1706145461.885,-390.137,23.438,20.996,-227.051,-584.473
1706145461.888,-71.777,25.879,20.508,-1.953,-414.551
1706145461.892,406.738,33.691,22.461,289.551,556.641
1706145461.896,220.703,35.156,27.832,113.770,542.969
1706145461.900,-319.824,28.809,27.344,-198.730,-391.602
1706145461.904,-190.918,24.902,18.066,-90.332,-580.078
1706145461.906,289.551,26.855,15.625,216.797,286.621
1706145461.910,343.750,35.645,20.996,193.848,708.496
1706145461.914,-173.340,32.715,20.508,-124.512,-125.488
1706145461.918,-320.312,28.320,20.020,-174.805,-674.316
1706145461.922,169.922,32.715,18.066,140.625,-35.156
1706145461.926,449.707,32.715,16.602,259.766,805.176
1706145461.930,-4.395,30.762,28.809,-42.969,127.930
1706145461.933,-386.719,26.855,25.879,-221.680,-633.301
1706145461.937,15.625,28.809,19.531,47.363,-210.938
1706145461.941,434.082,33.203,30.762,282.227,710.938
1706145461.945,124.512,28.809,43.457,42.969,428.223
1706145461.949,-384.277,21.484,31.738,-235.352,-451.172
1706145461.953,-113.281,22.461,16.602,-43.945,-437.500
1706145461.957,370.605,27.832,17.578,257.324,522.949
1706145461.961,229.980,28.809,23.926,125.488,573.242
1706145461.965,-309.082,27.832,31.738,-187.988,-372.559
1706145461.969,-242.676,24.414,26.367,-122.559,-604.980
1706145461.973,247.070,25.879,14.160,202.148,207.520
1706145461.977,354.492,26.367,23.438,209.961,708.008
1706145461.980,-133.789,17.090,35.156,-125.488,-131.836
1706145461.984,-337.891,15.137,29.297,-202.148,-674.316
1706145461.988,101.562,34.180,28.809,110.840,-58.594
1706145461.992,431.152,47.852,31.738,265.137,769.531
1706145461.996,26.367,41.016,25.879,-18.066,190.918
1706145462.011,-400.879,25.879,16.113,-225.098,-665.039
1706145462.015,-27.344,26.367,17.090,27.344,-330.566
1706145462.019,423.828,30.273,26.367,279.785,658.691
1706145462.023,155.762,26.855,28.320,66.406,438.477
1706145462.027,-364.746,24.902,22.949,-228.027,-502.441
1706145462.031,-142.578,25.391,21.973,-76.172,-561.035
1706145462.035,335.449,30.273,25.391,233.887,400.391
1706145462.038,271.484,29.785,26.367,137.695,621.582
1706145462.042,-255.371,22.949,23.438,-177.734,-253.906
1706145462.046,-272.461,21.484,20.508,-145.996,-631.836
1706145462.050,197.266,27.832,23.926,164.062,104.492
1706145462.054,378.418,31.250,31.250,216.309,759.277
1706145462.056,-95.703,31.738,41.504,-92.773,31.250
1706145462.060,-375.488,34.668,33.203,-208.984,-631.348
1706145462.064,56.641,33.691,27.832,82.031,-158.203
1706145462.068,417.969,32.227,26.367,255.371,766.602
1706145462.072,41.016,32.227,27.832,-18.066,294.434
1706145462.076,-418.457,26.367,34.180,-262.695,-546.875
1706145462.080,-79.102,32.227,27.344,-35.645,-332.031
1706145462.083,370.605,36.133,32.715,234.863,575.684
1706145462.087,144.531,37.598,36.133,39.551,466.797
1706145462.091,-382.324,41.016,32.715,-269.043,-427.734
1706145462.095,-209.473,44.434,30.762,-148.926,-554.688
1706145462.099,275.879,54.688,34.668,172.852,355.957
1706145462.101,255.859,57.617,38.086,110.840,654.297
1706145462.105,-291.504,47.363,44.922,-227.539,-235.840
1706145462.109,-357.910,41.504,43.945,-238.770,-633.789
1706145462.113,97.168,42.480,39.062,67.383,74.707
1706145462.117,292.969,43.457,45.410,149.902,788.574
1706145462.121,-157.227,38.086,50.781,-155.762,47.852
1706145462.125,-478.027,37.598,44.434,-312.988,-666.992
1706145462.128,-47.852,42.969,30.273,-28.809,-151.855
1706145462.132,342.285,45.898,31.250,176.758,781.250
1706145462.136,-14.160,40.527,47.852,-87.891,290.039
1706145462.140,-496.094,32.715,52.246,-342.285,-609.863
1706145462.144,-190.430,34.180,47.363,-123.047,-391.113
1706145462.146,284.668,37.598,44.922,169.922,572.754
1706145462.150,118.652,36.621,47.852,13.672,552.734
1706145462.154,-417.969,33.691,43.945,-290.039,-315.430
1706145462.158,-297.363,29.297,34.180,-191.406,-589.355
1706145462.162,210.938,35.645,34.180,134.766,238.281
1706145462.166,277.832,45.410,38.086,118.164,738.770
1706145462.170,-231.934,41.504,38.574,-197.266,-161.621
1706145462.173,-382.812,30.762,40.039,-233.398,-689.453
1706145462.177,72.754,28.809,41.016,92.285,-36.133
1706145462.181,377.441,30.273,41.992,218.750,779.297
1706145462.185,-35.156,24.902,43.945,-77.637,133.301
1706145462.189,-411.133,16.113,34.668,-248.535,-646.973
1706145462.192,5.371,19.531,23.926,44.434,-225.098
1706145462.196,438.477,25.879,21.484,294.434,739.258
1706145462.200,142.578,20.508,25.391,67.383,411.621
1706145462.204,-339.844,11.719,24.414,-187.500,-502.930
1706145462.208,-52.734,13.184,15.137,16.602,-428.711
1706145462.212,429.199,21.484,13.184,318.359,518.555
1706145462.216,292.969,24.902,20.020,183.105,566.406
1706145462.219,-257.812,20.020,20.020,-128.906,-382.812
1706145462.223,-189.941,14.160,5.859,-67.871,-650.391
1706145462.227,310.059,20.508,0.000,249.023,213.379
1706145462.231,419.434,26.367,2.441,271.973,789.062
1706145462.235,-83.496,19.043,6.348,-48.828,-75.684
1706145462.237,-283.691,11.719,4.883,-144.043,-668.945
1706145462.241,169.922,20.508,2.441,165.039,-35.156
1706145462.245,492.676,21.484,6.836,329.102,822.266
1706145462.249,103.027,17.090,10.254,40.527,237.305
1706145462.253,-331.055,19.043,4.395,-177.246,-621.582
1706145462.257,26.367,22.949,4.395,78.125,-298.340
1706145462.261,484.375,25.879,7.324,332.520,682.129
1706145462.264,212.891,24.414,11.230,108.398,405.762
1706145462.268,-313.477,19.531,15.625,-181.152,-551.270
1706145462.272,-85.938,21.484,14.648,-5.859,-538.086
1706145462.276,394.043,26.855,12.207,303.223,462.891
1706145462.280,318.359,25.879,15.625,200.195,653.320
1706145462.282,-223.145,20.508,21.973,-131.836,-279.785
1706145462.286,-235.352,15.625,11.230,-118.164,-654.297
1706145462.290,250.000,19.043,7.812,204.590,131.348
1706145462.294,424.316,25.391,14.648,258.789,817.871
1706145462.298,-48.340,23.438,16.113,-56.152,-13.184
1706145462.302,-326.660,19.043,15.137,-176.758,-678.223
1706145462.306,102.539,22.461,16.113,118.164,-110.840
1706145462.309,473.633,30.762,19.531,299.805,795.410
1706145462.313,96.191,28.320,22.461,23.926,299.316
1706145462.317,-365.723,17.090,16.113,-212.402,-578.125
1706145462.321,-18.066,24.414,10.254,27.344,-315.430
1706145462.325,451.172,34.668,15.625,306.152,657.227
1706145462.327,217.773,31.250,22.461,103.516,494.141
1706145462.331,-322.754,28.320,32.227,-187.012,-463.379
1706145462.335,-146.484,22.461,21.484,-40.039,-575.195
1706145462.339,327.148,24.414,7.324,259.766,408.203
1706145462.343,312.988,30.273,17.578,182.617,726.562
1706145462.347,-208.496,26.855,27.344,-141.602,-230.469
1706145462.351,-274.414,14.160,21.973,-150.391,-680.664
1706145462.354,195.312,17.578,18.555,165.039,68.359
1706145462.358,409.668,31.738,20.508,251.953,847.168
1706145462.362,-38.574,31.738,17.578,-52.734,140.137
1706145462.366,-377.930,28.809,20.508,-208.496,-625.488
1706145462.370,34.180,30.762,27.344,74.219,-173.340
1706145462.386,442.383,34.180,26.367,281.250,795.898
1706145462.390,97.656,27.832,27.344,20.508,359.375
1706145462.394,-386.719,21.973,24.414,-229.492,-615.234
1706145462.398,-78.125,27.832,20.508,-18.555,-461.914
1706145462.402,393.555,31.738,15.625,263.672,605.957
1706145462.406,213.867,29.297,16.113,97.656,586.426
1706145462.410,-311.523,25.879,22.949,-198.730,-436.523
1706145462.413,-193.848,24.902,17.578,-96.191,-623.535
1706145462.417,283.691,30.273,16.602,229.004,341.797
1706145462.421,340.332,34.668,22.949,203.125,767.090
1706145462.425,-176.270,30.762,22.461,-138.672,-164.551
1706145462.429,-314.941,26.367,20.020,-179.688,-711.914
1706145462.431,156.250,28.320,22.461,144.043,-6.348
1706145462.435,437.012,30.273,24.414,266.602,842.285
1706145462.439,-1.465,24.902,25.391,-41.504,131.836
1706145462.443,-390.625,22.461,27.344,-230.469,-689.453
1706145462.447,8.789,32.715,25.391,44.922,-240.723
1706145462.451,437.500,38.574,19.043,278.809,761.719
1706145462.455,128.418,34.668,23.926,42.480,381.836
1706145462.458,-386.230,24.414,26.367,-229.980,-572.754
1706145462.462,-111.328,24.902,20.020,-46.875,-469.727
1706145462.466,379.883,29.785,21.973,255.859,490.723
1706145462.470,250.488,32.227,29.297,128.418,605.469
1706145462.474,-296.875,26.367,33.203,-184.570,-341.309
1706145462.476,-241.699,23.926,28.809,-115.234,-685.547
1706145462.480,251.465,36.133,18.555,197.266,198.730
1706145462.484,369.141,40.527,9.766,209.473,809.082
1706145462.488,-132.324,30.273,18.555,-99.609,-95.703
1706145462.492,-349.121,23.926,31.738,-188.965,-748.047
1706145462.496,105.957,29.297,33.203,100.586,-104.004
1706145462.500,437.012,34.180,33.691,266.602,841.309
1706145462.503,23.438,32.715,37.109,-15.137,220.215
1706145462.507,-396.484,26.855,33.691,-225.586,-690.918
1706145462.511,-16.602,28.809,25.391,26.855,-318.848
1706145462.515,431.152,39.062,29.785,280.762,729.492
1706145462.519,155.762,38.574,33.203,64.941,462.402
1706145462.521,-363.770,26.855,18.066,-228.516,-508.301
1706145462.525,-136.719,26.855,10.742,-65.918,-500.488
1706145462.529,333.008,34.668,19.531,245.117,460.938
1706145462.533,259.277,32.227,27.832,140.137,660.645
1706145462.537,-266.113,27.344,25.879,-176.270,-291.504
1706145462.541,-268.066,26.855,21.973,-135.742,-709.473
1706145462.545,216.309,31.250,20.020,176.758,96.191
1706145462.548,392.090,35.156,26.367,219.727,822.754
1706145462.552,-89.355,29.785,28.809,-92.773,4.883
1706145462.556,-363.281,23.926,19.531,-211.426,-744.141
1706145462.560,71.289,32.715,20.996,77.637,-169.922
1706145462.564,442.383,38.086,25.879,264.160,846.191
1706145462.566,69.824,33.203,28.320,-4.883,291.504
1706145462.570,-395.020,25.879,24.414,-238.770,-624.512
1706145462.574,-51.270,26.855,16.602,7.812,-332.520
1706145462.578,411.621,33.203,18.066,282.227,651.367
1706145462.582,188.477,36.621,29.297,95.215,532.227
1706145462.586,-351.074,30.273,33.691,-202.637,-478.516
1706145462.590,-179.199,21.484,23.926,-82.520,-610.352
1706145462.593,314.453,27.344,27.344,226.074,371.094
1706145462.597,312.988,31.250,33.203,162.109,671.387
1706145462.601,-222.656,26.367,32.227,-158.203,-268.555
1706145462.605,-299.316,22.949,27.832,-159.180,-729.004
1706145462.609,197.266,30.762,26.367,161.133,52.246
1706145462.611,414.062,37.109,31.738,241.699,858.887
1706145462.615,-39.062,32.227,28.809,-67.383,102.051
1706145462.619,-363.281,28.320,17.090,-224.121,-718.262
1706145462.623,41.992,33.203,20.020,62.500,-218.750
1706145462.627,448.730,38.086,28.809,281.738,821.777
1706145462.631,97.656,34.180,40.527,20.996,337.402
1706145462.635,-398.438,25.391,41.016,-232.910,-629.883
1706145462.638,-86.914,24.902,35.156,-16.113,-442.871
1706145462.642,395.020,29.297,43.945,269.531,581.055
1706145462.646,218.262,30.273,43.457,94.727,605.469
1706145462.650,-333.496,25.879,36.133,-220.215,-403.320
1706145462.654,-213.379,23.926,29.297,-109.375,-663.574
1706145462.656,283.203,29.785,29.785,226.562,286.621
1706145462.660,326.660,31.738,28.320,208.008,770.996
1706145462.664,-190.918,29.297,24.902,-128.418,-163.574
1706145462.668,-326.172,28.320,31.738,-185.059,-751.465
1706145462.672,139.160,31.738,30.273,130.371,-30.273
1706145462.676,418.945,33.203,25.879,257.324,837.891
1706145462.680,-3.906,27.832,35.645,-35.645,158.203
1706145462.683,-386.719,25.391,39.551,-227.539,-638.184
1706145462.687,5.859,30.762,32.715,33.203,-223.633
1706145462.691,435.059,34.180,31.250,275.879,772.461
1706145462.695,118.164,32.227,33.691,46.387,419.434
1706145462.699,-391.602,28.320,32.227,-227.539,-573.242
1706145462.701,-104.004,31.738,28.809,-37.598,-477.539
1706145462.705,371.582,35.156,26.855,259.766,524.902
1706145462.709,235.840,35.156,36.621,121.582,631.348
1706145462.713,-296.875,31.738,33.203,-196.289,-345.215
1706145462.717,-241.211,23.438,16.113,-128.418,-686.035
1706145462.721,248.047,24.902,24.902,192.383,216.797
1706145462.725,365.234,31.738,34.180,207.031,753.418
1706145462.728,-139.160,29.785,31.738,-112.793,-147.461
1706145462.732,-348.145,24.414,23.438,-204.102,-713.379
1706145462.736,114.258,28.809,11.230,109.863,-68.848
1706145462.740,430.664,32.715,16.602,275.391,828.613
1706145462.744,14.160,28.320,28.320,-20.996,227.539
1706145462.747,-400.879,22.461,29.785,-233.398,-649.414
1706145462.751,-22.461,24.414,31.738,32.715,-339.355
1706145462.755,421.875,28.320,32.715,289.551,654.785
1706145462.759,158.691,30.762,35.645,59.570,461.914
1706145462.763,-359.863,27.832,31.738,-237.305,-444.824
1706145462.767,-144.043,25.879,23.438,-70.801,-527.832
1706145462.771,338.379,31.738,21.973,238.281,394.043
1706145462.774,271.973,33.691,27.344,147.461,638.184
1706145462.778,-270.996,26.855,29.785,-175.293,-256.348
1706145462.782,-283.203,22.461,25.391,-148.926,-640.137
1706145462.786,211.426,27.832,21.973,176.270,121.094
1706145462.790,396.484,34.668,30.273,225.098,791.016
1706145462.806,-83.984,31.738,33.691,-93.750,-1.465
1706145462.810,-372.070,22.949,21.973,-220.703,-675.293
1706145462.814,65.430,26.855,18.066,79.590,-154.785
1706145462.818,426.758,32.715,21.484,264.648,759.277
1706145462.822,49.805,30.273,25.879,-7.324,283.203
1706145462.826,-399.414,24.902,26.855,-237.305,-586.914
1706145462.830,-53.711,29.297,20.996,-4.395,-339.844
1706145462.833,408.691,34.668,20.508,266.113,635.742
1706145462.837,182.617,34.180,24.902,71.777,486.328
1706145462.841,-348.145,30.762,23.926,-224.609,-426.270
1706145462.845,-175.781,29.785,20.508,-87.402,-601.562
1706145462.849,300.293,34.668,23.438,231.934,330.078
1706145462.851,301.758,35.156,24.414,173.340,659.668
1706145462.855,-223.633,29.297,24.902,-153.320,-252.930
1706145462.859,-307.129,22.461,20.508,-171.387,-678.711
1706145462.863,170.410,25.879,18.555,140.625,20.020
1706145462.867,397.949,31.738,22.461,234.863,777.832
1706145462.871,-51.758,29.785,24.414,-67.383,59.082
1706145462.875,-382.812,24.902,23.438,-226.562,-655.273
1706145462.878,34.668,28.320,24.902,60.059,-160.645
1706145462.882,440.430,34.180,29.785,275.391,770.996
1706145462.886,91.797,30.273,29.785,10.742,343.750
1706145462.890,-402.344,20.020,27.832,-235.352,-594.727
1706145462.894,-87.402,22.461,23.926,-20.996,-444.336
1706145462.896,389.160,32.227,21.484,261.230,586.426
1706145462.900,208.008,31.738,26.855,100.586,565.430
1706145462.904,-334.473,26.367,26.855,-211.914,-402.344
1706145462.908,-213.867,28.320,19.531,-109.863,-579.590
1706145462.912,284.180,35.156,24.414,215.820,282.715
1706145462.916,344.238,35.645,32.715,205.078,727.051
1706145462.920,-175.781,30.762,35.645,-127.441,-122.559
1706145462.923,-331.055,27.344,30.273,-195.312,-690.430
1706145462.927,134.766,28.809,22.949,110.352,-58.594
1706145462.931,432.129,36.133,22.461,236.816,762.695
1706145462.935,14.648,36.133,28.320,-47.852,135.742
1706145462.939,-380.859,25.391,23.438,-227.539,-662.598
1706145462.942,-5.859,30.273,20.508,36.621,-238.281
1706145462.946,420.898,35.645,22.461,261.230,723.145
1706145462.950,120.605,32.227,26.367,19.043,371.094
1706145462.954,-394.531,26.855,26.855,-242.188,-563.477
1706145462.958,-132.812,26.367,22.949,-39.551,-483.398
1706145462.962,353.027,33.203,20.996,252.441,477.539
1706145462.966,231.445,33.691,23.438,112.305,519.531
1706145462.969,-306.641,28.809,27.344,-194.336,-351.562
1706145462.973,-251.953,23.926,20.508,-133.301,-584.473
1706145462.977,238.281,28.809,20.996,188.965,225.098
1706145462.981,358.887,35.645,27.344,209.961,736.328
1706145462.985,-142.578,31.250,25.879,-121.094,-151.367
1706145462.987,-360.352,24.414,20.508,-207.520,-759.766
1706145462.991,118.164,28.809,20.996,93.750,-90.332
1706145462.995,448.242,35.156,21.484,259.766,794.922
1706145462.999,22.461,31.738,23.926,-18.066,176.270
1706145463.003,-395.020,24.414,27.344,-231.934,-635.254
1706145463.007,-20.996,26.855,23.926,29.297,-273.438
1706145463.011,423.340,32.227,21.973,285.156,666.504
1706145463.014,159.180,34.180,35.156,61.523,420.410
1706145463.018,-366.699,31.250,39.551,-223.633,-510.742
1706145463.022,-145.020,30.762,26.855,-60.059,-519.043
1706145463.026,350.098,35.156,23.438,241.699,404.297
1706145463.030,274.414,32.227,27.344,148.926,593.262
1706145463.032,-269.043,27.344,31.738,-169.922,-292.969
1706145463.036,-272.949,26.855,25.391,-147.949,-651.367
1706145463.040,217.773,33.203,22.949,172.852,109.375
1706145463.044,400.391,36.621,34.180,232.910,743.652
1706145463.048,-79.590,30.273,38.574,-83.008,-16.602
1706145463.052,-365.234,25.391,31.738,-212.402,-687.500
1706145463.056,72.754,29.297,24.902,86.426,-176.270
1706145463.059,446.777,33.203,27.832,262.207,745.117
1706145463.063,72.754,31.738,30.273,-14.160,294.434
1706145463.067,-384.277,26.367,22.461,-233.398,-575.684
1706145463.071,-48.340,25.879,20.996,5.371,-350.586
1706145463.075,405.273,30.762,25.879,274.902,618.652
1706145463.076,176.758,30.762,30.762,76.660,508.789
1706145463.080,-350.098,25.879,30.762,-221.680,-405.273
1706145463.084,-164.062,25.391,22.949,-74.707,-574.707
1706145463.088,315.430,31.738,21.973,239.258,348.633
1706145463.092,305.176,33.691,29.785,169.434,648.926
1706145463.096,-222.168,27.344,25.879,-157.227,-186.035
1706145463.100,-297.363,26.367,23.926,-173.340,-654.785
1706145463.103,187.988,31.738,27.344,141.602,-35.645
1706145463.107,409.180,31.250,24.902,239.258,770.508
1706145463.111,-56.641,24.902,25.879,-57.129,81.543
1706145463.115,-388.184,18.555,20.996,-213.379,-649.414
1706145463.119,33.203,24.414,18.066,62.988,-192.871
1706145463.136,436.035,30.762,24.902,271.484,741.211
1706145463.140,92.285,28.809,31.738,16.602,352.051
1706145463.144,-389.648,21.484,32.227,-232.910,-514.648
1706145463.148,-87.402,21.973,28.320,-20.508,-354.980
1706145463.152,381.348,29.785,26.855,269.531,565.430
1706145463.156,209.961,32.227,31.250,98.633,472.168
1706145463.160,-330.566,27.344,27.832,-220.703,-389.648
1706145463.163,-213.867,28.809,19.531,-114.746,-554.688
1706145463.167,282.227,35.645,22.949,214.355,248.047
1706145463.171,342.773,33.691,28.809,195.801,666.504
1706145463.175,-178.711,26.367,28.809,-132.324,-209.961
1706145463.179,-319.824,27.832,18.066,-177.246,-700.684
1706145463.181,170.410,36.133,12.207,142.578,-27.832
1706145463.185,436.523,33.691,22.949,254.395,770.996
1706145463.189,-16.113,26.367,33.691,-52.734,112.305
1706145463.193,-393.066,18.066,29.785,-230.469,-673.340
1706145463.197,2.930,19.531,24.414,44.434,-257.812
1706145463.201,422.363,28.809,26.367,284.180,677.734
1706145463.205,125.488,25.879,29.297,40.039,365.234
1706145463.208,-383.301,20.996,29.785,-241.699,-519.043
1706145463.212,-110.840,25.391,26.367,-46.387,-455.566
1706145463.216,376.465,30.273,20.020,254.883,486.328
1706145463.220,247.070,32.715,21.484,118.164,550.781
1706145463.224,-290.039,27.832,24.902,-197.754,-388.184
1706145463.226,-229.980,22.949,21.484,-122.559,-667.969
1706145463.230,245.605,28.809,19.531,204.590,194.824
1706145463.234,360.352,34.668,19.531,214.844,752.930
1706145463.238,-130.859,30.762,30.273,-103.516,-59.570
1706145463.242,-351.562,25.879,24.902,-185.547,-612.793
1706145463.246,104.004,28.809,14.648,107.910,-25.391
1706145463.250,439.453,33.691,28.320,263.672,809.570
1706145463.253,27.832,30.762,34.668,-18.066,258.789
1706145463.257,-395.996,24.902,28.809,-230.957,-495.605
1706145463.261,-19.043,30.273,25.391,25.391,-211.426
1706145463.265,431.152,34.668,26.367,283.203,692.871
1706145463.269,162.598,31.738,31.250,68.359,489.258
1706145463.272,-375.488,27.344,30.762,-222.168,-389.648
1706145463.276,-145.020,28.320,22.949,-57.129,-461.914
1706145463.280,346.191,33.203,24.414,250.977,437.500
1706145463.284,272.461,30.762,33.691,149.414,640.625
1706145463.288,-265.137,30.273,39.062,-163.086,-280.762
1706145463.292,-277.832,29.785,31.738,-144.043,-681.152
1706145463.296,208.984,27.344,22.949,163.086,94.727
1706145463.299,384.277,28.809,28.320,228.516,735.840
1706145463.303,-99.121,27.344,34.180,-86.426,-22.949
1706145463.307,-375.488,25.391,27.344,-214.844,-621.094
1706145463.311,69.336,28.809,22.461,86.914,-107.910
1706145463.315,439.453,34.180,27.344,281.738,777.832
1706145463.316,66.895,32.227,34.668,0.000,313.477
1706145463.320,-388.672,27.344,29.297,-247.070,-527.832
1706145463.324,-54.199,30.273,24.902,-4.395,-327.148
1706145463.328,408.203,33.691,34.180,274.902,599.609
1706145463.332,181.641,32.227,44.434,80.566,496.582
1706145463.336,-350.098,27.832,40.527,-211.426,-396.484
1706145463.340,-167.480,29.785,34.180,-67.871,-560.547
1706145463.343,322.754,34.668,34.668,252.441,297.852
1706145463.347,310.547,34.668,37.109,184.082,612.305
1706145463.351,-224.609,29.785,30.273,-146.973,-265.137
1706145463.355,-298.828,26.367,21.484,-153.320,-686.035
1706145463.359,184.570,30.273,22.949,158.691,45.410
1706145463.361,411.133,33.203,30.762,242.188,759.766
1706145463.365,-37.598,30.273,37.598,-56.152,90.332
1706145463.369,-364.746,27.344,30.762,-208.008,-610.840
1706145463.373,51.758,28.809,22.949,71.777,-182.129
1706145463.377,453.125,35.645,26.855,279.297,761.230
1706145463.381,106.934,35.645,30.762,24.902,354.492
1706145463.385,-390.137,26.367,22.949,-229.492,-557.129
1706145463.388,-85.449,24.902,15.137,-23.926,-444.336
1706145463.392,387.207,29.297,25.879,270.508,507.812
1706145463.396,213.867,31.250,39.062,112.305,548.828
1706145463.400,-321.289,27.344,32.715,-206.543,-321.777
1706145463.404,-212.891,24.902,25.391,-113.770,-555.176
1706145463.407,271.973,31.250,27.344,202.637,286.621
1706145463.411,341.797,36.621,25.391,193.359,693.848
1706145463.415,-161.133,35.156,17.090,-116.699,-160.156
1706145463.419,-321.777,28.320,21.973,-177.734,-631.836
1706145463.423,137.695,27.832,37.598,119.629,8.789
1706145463.427,415.527,31.250,44.434,248.047,771.973
1706145463.431,-27.344,31.738,46.387,-41.992,108.398
1706145463.434,-408.203,27.344,39.062,-234.375,-631.348
1706145463.438,-1.953,28.809,29.785,34.180,-199.219
1706145463.442,420.410,36.621,31.738,273.438,721.680
1706145463.446,104.980,34.180,37.598,37.598,375.000
1706145463.450,-397.461,26.367,37.598,-232.422,-559.082
1706145463.452,-122.559,27.344,32.715,-46.387,-486.328
1706145463.456,351.562,31.250,30.273,250.977,484.863
1706145463.460,232.910,32.227,29.785,120.117,573.242
1706145463.464,-283.691,30.273,29.785,-194.824,-315.918
1706145463.468,-230.469,29.785,27.832,-122.070,-647.949
1706145463.472,245.605,36.133,26.367,195.801,134.277
1706145463.476,361.328,35.156,29.297,193.359,704.102
1706145463.479,-143.555,26.367,30.273,-127.930,-116.211
1706145463.483,-358.398,23.926,25.391,-205.078,-698.242
1706145463.487,104.980,28.320,20.508,107.910,-82.031
1706145463.491,433.594,30.273,22.461,270.508,799.805
1706145463.495,20.996,30.762,27.344,-23.438,253.906
1706145463.497,-400.879,23.926,27.344,-238.770,-598.633
1706145463.501,-21.973,21.484,27.832,20.996,-335.938
1706145463.505,421.875,27.832,29.297,275.879,658.691
1706145463.509,167.480,27.344,33.203,55.176,491.699
1706145463.513,-357.422,20.020,31.738,-232.422,-430.176
1706145463.517,-154.785,20.508,24.414,-64.941,-530.762
1706145463.521,333.496,28.809,13.672,235.352,381.348
1706145463.524,267.090,29.785,14.648,138.672,637.695
1706145463.528,-269.531,25.879,29.297,-172.363,-249.512
1706145463.532,-282.227,22.949,30.762,-144.043,-679.199
1706145463.536,203.613,28.320,26.855,175.781,103.516
1706145463.540,392.090,34.668,24.902,229.980,782.227
1706145463.557,-90.332,31.738,32.227,-85.449,-44.922
1706145463.561,-370.117,26.367,27.832,-208.008,-673.828
1706145463.565,81.055,31.738,21.484,89.355,-96.191
1706145463.569,451.660,37.598,23.926,276.367,789.062
1706145463.573,69.824,33.203,28.320,-3.906,270.508
1706145463.577,-395.996,28.809,30.762,-238.770,-620.117
1706145463.581,-48.828,31.738,30.273,6.836,-375.977
1706145463.584,412.109,33.691,21.973,281.250,635.254
1706145463.588,188.965,34.668,22.461,81.543,514.648
1706145463.592,-349.609,31.250,30.762,-215.820,-414.551
1706145463.596,-173.340,24.902,27.832,-84.961,-526.367
1706145463.600,316.406,27.832,25.391,220.703,366.211
1706145463.601,295.410,30.273,21.484,164.062,661.133
1706145463.605,-222.656,29.297,23.926,-145.508,-209.961
1706145463.609,-293.945,28.320,18.066,-152.344,-653.320
1706145463.613,178.223,29.785,12.207,158.203,37.598
1706145463.617,413.574,31.738,23.926,240.723,775.879
1706145463.621,-33.203,29.297,36.133,-68.359,85.449
1706145463.625,-374.023,23.926,33.203,-220.703,-611.816
1706145463.628,31.738,25.391,25.879,72.754,-191.406
1706145463.632,430.664,28.320,32.227,278.320,705.078
1706145463.636,100.098,29.785,40.527,1.953,302.734
1706145463.640,-380.859,25.879,41.504,-246.582,-585.938
1706145463.644,-80.078,25.879,26.855,-19.043,-436.035
1706145463.646,389.160,31.250,12.207,266.113,545.410
1706145463.650,213.379,32.715,21.973,106.934,566.406
1706145463.654,-318.848,33.691,15.137,-192.871,-397.949
1706145463.658,-204.102,29.297,-7.812,-96.191,-668.457
1706145463.662,276.855,25.391,29.297,208.984,244.141
1706145463.666,330.566,26.367,71.289,178.223,691.406
1706145463.670,-176.758,26.855,58.105,-140.137,-187.500
1706145463.673,-325.195,23.926,28.809,-184.570,-703.613
1706145463.677,144.531,30.762,30.762,128.906,-78.613
1706145463.681,433.105,38.086,34.180,256.836,742.188
1706145463.685,7.812,29.785,27.832,-38.574,152.832
1706145463.689,-375.488,22.461,15.137,-229.004,-626.953
1706145463.691,11.230,27.344,11.230,33.691,-250.488
1706145463.695,435.547,33.691,2.930,264.160,711.426
1706145463.699,123.047,35.156,12.207,37.598,398.438
1706145463.703,-390.137,24.414,32.715,-219.238,-544.434
1706145463.707,-114.746,20.996,30.762,-34.180,-473.145
1706145463.711,372.559,27.832,27.832,255.859,484.863
1706145463.715,246.582,29.785,28.320,120.117,584.961
1706145463.718,-291.992,24.902,27.832,-197.754,-305.664
1706145463.722,-240.723,24.902,5.371,-123.535,-629.883
1706145463.726,249.512,30.762,2.441,198.242,179.688
1706145463.730,375.488,29.785,17.090,207.031,714.355
1706145463.734,-133.789,26.855,16.602,-113.770,-37.598
1706145463.737,-350.586,24.902,20.020,-202.637,-635.254
1706145463.741,110.840,28.809,24.414,107.910,-107.422
1706145463.745,431.641,33.203,25.879,271.484,782.227
1706145463.749,29.297,31.250,32.227,-25.879,199.707
1706145463.753,-391.602,24.902,27.344,-231.934,-635.254
1706145463.757,-24.414,27.344,13.184,27.344,-280.273
1706145463.761,420.410,33.203,9.766,272.949,656.250
1706145463.764,153.320,29.297,23.926,48.828,433.105
1706145463.768,-374.512,24.414,29.297,-238.281,-458.496
1706145463.772,-146.484,23.438,18.555,-67.871,-525.879
1706145463.776,334.961,27.832,20.020,246.094,415.527
1706145463.780,265.625,34.668,22.949,152.832,587.402
1706145463.781,-260.742,33.203,11.230,-161.621,-290.039
1706145463.785,-277.344,27.832,14.160,-145.020,-666.016
1706145463.789,212.402,32.227,28.320,170.898,58.105
1706145463.793,392.090,37.109,30.762,236.328,740.234
1706145463.797,-84.961,32.715,29.297,-84.473,48.828
1706145463.801,-357.910,28.809,25.879,-219.727,-569.336
1706145463.805,82.520,34.180,19.531,74.707,-136.719
1706145463.808,450.684,38.574,21.484,259.766,715.820
1706145463.812,85.938,36.621,22.949,-11.719,234.375
1706145463.816,-387.207,30.762,5.371,-238.281,-598.633
1706145463.820,-60.547,29.297,13.672,4.883,-339.844
1706145463.824,404.297,31.738,32.227,277.344,631.348
1706145463.826,189.453,35.156,35.645,91.309,470.703
1706145463.830,-336.426,37.109,34.668,-192.871,-402.832
1706145463.834,-168.945,33.203,21.484,-57.617,-528.320
1706145463.838,314.453,33.203,17.090,244.141,317.383
1706145463.842,298.828,30.273,27.832,168.457,689.453
1706145463.846,-235.840,24.414,35.156,-154.785,-141.113
1706145463.850,-318.848,20.508,30.762,-178.711,-640.137
1706145463.853,158.691,25.391,25.879,129.395,25.391
1706145463.857,393.555,33.203,27.344,229.004,791.016
1706145463.861,-46.875,30.762,29.785,-79.590,80.078
1706145463.865,-390.625,22.461,28.809,-235.840,-632.812
1706145463.869,14.160,28.809,21.484,51.758,-194.336
1706145463.871,422.852,33.691,9.766,278.320,739.746
1706145463.875,73.242,26.855,18.066,25.879,329.102
1706145463.879,-415.039,23.438,32.715,-235.352,-547.363
1706145463.883,-104.980,24.414,35.156,-25.879,-378.418
1706145463.887,371.094,30.273,31.738,257.324,558.105
1706145463.891,205.078,33.203,36.621,89.844,550.781
1706145463.895,-329.590,27.344,31.738,-226.562,-349.121
1706145463.898,-216.309,27.344,15.137,-110.840,-566.406
1706145463.902,267.090,34.668,24.902,215.820,267.578
1706145463.906,335.938,33.691,35.645,177.734,696.289
1706145463.910,-176.758,28.320,36.133,-145.508,-156.250
1706145463.914,-337.891,25.879,18.066,-187.012,-655.762
1706145463.931,127.930,26.367,10.742,121.094,13.672
1706145463.935,420.410,31.250,32.227,238.770,787.598
1706145463.939,-0.977,29.785,40.527,-53.711,120.605
1706145463.943,-389.648,23.438,32.715,-232.910,-668.945
1706145463.947,6.348,27.832,29.785,39.062,-281.250
1706145463.951,433.105,34.180,19.043,278.809,671.875
1706145463.955,133.789,30.762,24.414,41.504,402.832
1706145463.958,-379.395,24.414,38.086,-231.445,-470.703
1706145463.962,-120.117,23.438,29.785,-42.969,-447.754
1706145463.966,366.211,26.855,22.461,256.836,494.629
1706145463.970,245.605,27.344,26.855,130.371,589.355
1706145463.974,-289.551,21.484,36.133,-186.035,-266.113
1706145463.976,-235.840,21.484,33.203,-125.977,-605.469
1706145463.980,245.605,28.809,24.902,203.125,158.203
1706145463.984,369.629,33.203,28.320,226.562,785.156
1706145463.988,-125.000,28.320,27.344,-97.656,-7.324
1706145463.992,-334.473,24.902,21.484,-186.523,-638.672
1706145463.996,120.117,30.273,18.555,116.211,-96.191
1706145464.000,431.641,31.738,17.578,273.926,793.945
1706145464.003,39.551,27.832,34.668,-4.883,265.137
1706145464.007,-375.488,23.438,45.898,-216.309,-621.582
1706145464.011,-16.113,27.832,39.062,34.180,-353.027
1706145464.015,420.410,36.621,24.414,289.551,695.801
1706145464.019,161.621,34.180,23.438,70.312,451.660
1706145464.022,-350.098,30.273,35.645,-219.727,-506.348
1706145464.026,-133.789,31.738,36.133,-52.734,-524.414
1706145464.030,334.473,34.180,26.855,253.906,426.758
1706145464.034,269.043,33.691,24.902,156.250,644.531
1706145464.038,-242.188,27.344,24.414,-172.363,-265.625
1706145464.042,-262.695,24.902,18.555,-165.039,-642.090
1706145464.046,191.895,30.762,18.066,151.367,135.742
1706145464.049,373.047,33.203,24.902,212.402,787.598
1706145464.053,-83.984,28.320,27.344,-98.145,9.277
1706145464.057,-354.492,28.320,16.602,-220.703,-710.938
1706145464.061,74.707,30.762,19.531,75.195,-185.547
1706145464.065,433.105,34.180,32.715,270.996,778.809
1706145464.066,66.406,36.133,27.344,6.348,291.016
1706145464.070,-387.695,29.785,21.973,-233.398,-637.695
1706145464.074,-56.152,30.762,34.668,7.812,-426.270
1706145464.078,392.090,37.598,33.203,281.250,637.207
1706145464.082,176.270,36.133,30.762,75.684,528.320
1706145464.086,-330.078,31.250,32.715,-218.750,-421.387
1706145464.090,-163.086,31.738,23.926,-84.961,-586.426
1706145464.093,304.688,36.133,26.367,226.562,307.129
1706145464.097,317.383,39.551,29.297,174.316,660.156
1706145464.101,-188.477,37.109,21.973,-148.438,-208.008
1706145464.105,-282.715,31.250,19.531,-162.598,-643.066
1706145464.109,160.645,34.668,23.438,150.879,57.617
1706145464.111,384.277,38.086,30.273,244.141,820.801
1706145464.115,-43.945,35.156,32.227,-58.105,117.188
1706145464.119,-368.164,28.809,19.531,-212.402,-651.367
1706145464.123,33.691,30.762,20.020,63.477,-199.219
1706145464.127,431.641,35.156,30.762,270.996,752.930
1706145464.131,101.074,29.785,33.203,13.184,328.613
1706145464.135,-383.301,25.879,33.203,-247.559,-562.500
1706145464.138,-82.520,29.297,30.273,-29.297,-408.203
1706145464.142,390.625,36.133,32.715,270.508,574.707
1706145464.146,228.516,41.992,34.668,109.375,552.734
1706145464.150,-307.617,32.227,26.855,-200.684,-401.367
1706145464.154,-198.242,25.391,20.508,-109.375,-564.453
1706145464.156,288.574,31.250,22.461,201.660,270.996
1706145464.160,355.957,34.668,29.297,186.035,719.727
1706145464.164,-160.645,30.273,30.273,-130.859,-69.336
1706145464.168,-322.754,26.367,26.367,-183.594,-582.520
1706145464.172,126.953,31.250,22.461,117.676,15.137
1706145464.176,409.180,32.227,24.902,241.211,805.176
1706145464.180,-8.789,29.297,23.926,-59.082,177.734
1706145464.183,-400.879,23.926,23.438,-240.723,-623.047
1706145464.187,-12.207,26.855,29.297,42.969,-245.117
1706145464.191,410.156,30.762,30.273,281.738,737.793
1706145464.195,117.676,29.785,29.297,30.273,407.715
1706145464.199,-373.047,25.879,27.832,-247.070,-500.977
1706145464.202,-109.375,23.926,21.484,-56.641,-425.293
1706145464.206,357.422,28.809,22.949,239.258,510.254
1706145464.210,235.840,30.762,36.133,118.652,562.500
1706145464.214,-278.809,25.391,37.109,-187.988,-340.332
1706145464.218,-236.328,22.461,27.344,-123.535,-637.207
1706145464.222,227.051,28.320,28.809,200.684,145.020
1706145464.226,354.492,31.250,36.133,219.238,709.961
1706145464.229,-129.883,25.879,37.109,-104.492,-75.195
1706145464.233,-350.098,21.484,34.668,-199.707,-666.504
1706145464.237,86.426,26.855,34.668,102.051,-109.863
1706145464.241,411.621,31.250,28.320,259.277,763.672
1706145464.245,32.715,29.785,23.926,-23.438,200.195
1706145464.246,-386.719,25.879,26.367,-229.004,-637.207
1706145464.250,-30.273,27.832,36.133,30.762,-319.824
1706145464.254,420.410,32.227,40.039,277.832,649.902
1706145464.258,172.852,33.203,39.062,64.453,428.711
1706145464.262,-352.051,26.367,34.668,-219.727,-513.672
1706145464.266,-147.461,25.879,26.367,-69.824,-585.449
1706145464.270,327.637,33.691,24.902,239.258,354.492
1706145464.273,280.762,35.156,27.344,141.602,622.070
1706145464.277,-248.047,29.297,33.691,-186.035,-261.230
1706145464.281,-270.996,25.391,28.809,-148.926,-693.848
1706145464.285,206.543,31.738,22.949,187.012,81.055
1706145464.289,388.184,36.621,27.832,235.352,778.320
1706145464.306,-75.195,34.180,31.738,-96.680,35.156
1706145464.310,-350.098,30.762,30.273,-219.238,-671.387
1706145464.314,78.125,29.785,27.344,78.125,-175.781
1706145464.318,433.105,31.250,28.320,267.578,763.184
1706145464.322,71.777,31.738,31.250,4.883,294.434
1706145464.326,-381.836,27.344,28.809,-227.051,-580.078
1706145464.330,-53.711,28.809,23.926,10.742,-367.188
1706145464.333,404.785,34.668,22.461,288.086,599.121
1706145464.337,197.754,37.109,24.414,93.750,500.488
1706145464.341,-339.355,31.250,36.621,-215.820,-396.484
