timestamps,TP9,AF7,AF8,TP10,Right AUX
1706145148.361,-762.207,18.555,26.367,-395.996,-579.590
1706145148.365,643.066,18.555,7.812,454.590,152.832
1706145148.369,-946.777,32.715,8.301,551.270,695.801
1706145148.373,-293.457,36.133,28.320,-297.363,-28.320
1706145148.377,-1000.000,22.461,21.973,-593.750,-556.152
1706145148.381,217.285,21.484,3.418,225.098,-58.105
1706145148.385,-786.133,32.715,4.883,709.473,727.051
1706145148.388,129.395,37.598,24.414,-59.082,229.492
1706145148.392,-1000.000,28.320,27.832,-677.246,-527.832
1706145148.396,-157.227,20.020,-0.977,-3.418,-300.293
1706145148.400,-823.242,26.367,-9.766,719.727,606.445
1706145148.404,412.598,40.527,22.461,163.086,455.078
1706145148.406,-1000.000,38.086,33.691,-639.648,-372.070
1706145148.410,-486.328,20.996,5.859,-233.887,-413.574
1706145148.414,954.590,24.902,-2.930,621.582,439.941
1706145148.418,787.598,43.945,18.066,410.645,611.816
1706145148.422,-705.078,42.969,32.715,-471.191,-292.969
1706145148.426,-847.656,24.902,17.090,-452.637,-607.422
1706145148.430,525.879,25.879,4.883,416.992,127.930
1706145148.433,-884.277,39.062,15.137,618.652,762.207
1706145148.437,-159.668,42.480,31.738,-240.234,60.547
1706145148.441,-1000.000,29.785,25.879,-636.719,-625.000
1706145148.445,117.676,22.949,10.742,166.016,-147.949
1706145148.449,-781.250,35.156,11.230,735.352,768.555
1706145148.451,201.660,44.434,26.855,-3.418,281.738
1706145148.455,-1000.000,34.180,29.785,-697.754,-624.512
1706145148.459,-253.418,23.438,10.254,-70.312,-360.352
1706145148.463,-864.258,26.367,3.906,711.914,601.562
1706145148.467,491.699,38.574,19.531,222.168,503.418
1706145148.471,-1000.000,37.598,28.320,-624.512,-363.770
1706145148.475,-603.516,21.484,13.672,-302.246,-523.438
1706145148.478,833.984,24.414,1.953,577.637,329.102
1706145148.482,892.090,41.016,13.672,451.660,643.555
1706145148.486,-568.359,39.062,29.297,-448.730,-206.543
1706145148.490,-922.363,24.414,20.508,-524.414,-601.562
1706145148.494,412.109,26.855,7.324,354.004,61.523
1706145148.496,-837.402,37.109,8.789,650.879,787.598
1706145148.500,-45.410,42.969,21.973,-181.641,132.324
1706145148.504,-1000.000,38.086,19.531,-647.461,-592.285
1706145148.508,23.438,26.367,7.324,110.352,-173.828
1706145148.512,-787.109,25.391,11.719,729.004,751.953
1706145148.516,265.137,33.691,32.715,43.945,345.703
1706145148.520,-1000.000,28.320,36.621,-691.406,-559.082
1706145148.523,-349.609,16.602,18.066,-130.859,-422.852
1706145148.527,-926.758,19.043,10.742,678.711,563.477
1706145148.531,579.102,31.738,29.297,270.508,562.012
1706145148.535,-938.477,31.738,44.922,-587.891,-356.445
1706145148.539,-688.477,17.578,22.949,-363.281,-608.887
1706145148.543,735.352,20.508,5.371,515.625,229.492
1706145148.547,977.051,35.156,17.090,515.137,752.930
1706145148.551,-430.664,36.621,34.668,-367.188,-80.566
1706145148.555,-992.676,23.438,25.391,-558.105,-629.395
1706145148.559,290.527,21.484,11.719,301.270,3.418
1706145148.563,-806.152,33.203,17.090,690.918,819.824
1706145148.567,53.223,39.062,33.691,-133.301,210.449
1706145148.570,-1000.000,31.738,37.598,-694.824,-557.129
1706145148.574,-93.262,21.484,18.066,36.621,-200.195
1706145148.578,-804.199,24.414,12.207,736.816,732.422
1706145148.582,338.379,35.645,32.227,110.840,398.438
1706145148.586,-1000.000,31.250,40.039,-673.828,-512.695
1706145148.587,-433.105,20.020,19.531,-181.152,-458.008
1706145148.591,-993.652,27.832,9.766,659.668,491.211
1706145148.595,684.570,39.551,27.344,339.355,605.469
1706145148.599,-827.637,37.109,37.598,-560.547,-304.199
1706145148.603,-779.297,24.414,22.949,-444.336,-641.113
1706145148.607,620.117,24.902,10.254,468.750,146.484
1706145148.611,-945.312,38.574,17.090,571.777,737.793
1706145148.614,-289.551,43.945,31.738,-327.148,-92.773
1706145148.618,-1000.000,28.320,21.484,-628.418,-690.430
1706145148.622,202.637,23.926,0.488,205.078,-123.535
1706145148.626,-787.109,32.227,0.977,688.965,760.742
1706145148.630,133.789,39.062,30.273,-86.914,264.648
1706145148.631,-1000.000,34.180,39.062,-706.543,-547.852
1706145148.635,-174.316,23.926,19.531,-22.949,-328.125
1706145148.639,-829.102,28.320,11.230,713.867,646.484
1706145148.643,411.133,41.992,27.344,152.832,477.539
1706145148.647,-1000.000,36.621,42.480,-661.133,-465.332
1706145148.651,-538.574,21.973,24.902,-240.234,-535.156
1706145148.655,912.109,26.367,7.812,621.094,373.047
1706145148.658,793.457,37.109,20.996,386.719,635.742
1706145148.662,-703.613,37.598,34.668,-521.484,-222.168
1706145148.666,-860.840,22.949,20.996,-510.254,-614.746
1706145148.670,509.766,23.926,9.277,396.973,106.934
1706145148.674,-883.789,36.621,16.602,611.328,776.367
1706145148.691,-155.762,38.574,30.273,-258.301,22.461
1706145148.695,-1000.000,25.879,26.367,-654.785,-653.809
1706145148.699,94.238,20.508,7.324,147.949,-164.062
1706145148.703,-782.227,30.762,0.488,711.914,761.230
1706145148.707,198.242,37.109,24.902,-31.250,322.754
1706145148.711,-1000.000,26.855,37.598,-713.379,-539.062
1706145148.715,-260.254,17.090,18.555,-80.566,-405.273
1706145148.718,-869.629,24.902,9.766,704.590,565.918
1706145148.722,490.234,39.551,27.832,210.449,509.277
1706145148.726,-1000.000,39.551,38.574,-655.762,-400.879
1706145148.730,-609.375,22.949,17.090,-332.031,-557.617
1706145148.734,828.613,23.438,5.859,569.336,314.941
1706145148.736,893.555,38.574,20.996,463.867,678.223
1706145148.740,-566.406,34.668,33.203,-451.660,-192.871
1706145148.744,-932.129,14.648,23.438,-541.504,-608.398
1706145148.748,400.879,15.137,13.184,350.586,87.402
1706145148.752,-833.984,27.832,20.508,652.832,816.406
1706145148.756,-40.039,33.691,38.574,-197.266,95.703
1706145148.760,-1000.000,23.438,32.715,-672.363,-686.523
1706145148.763,24.414,17.090,13.672,98.145,-221.680
1706145148.767,-781.250,25.879,9.277,732.910,742.188
1706145148.771,264.160,36.133,28.809,42.969,354.980
1706145148.775,-1000.000,31.738,40.039,-697.266,-541.992
1706145148.779,-349.121,21.484,20.020,-135.742,-416.504
1706145148.782,-923.340,22.461,10.254,677.246,552.246
1706145148.786,588.379,38.086,26.855,275.879,563.965
1706145148.790,-927.734,39.551,40.039,-593.750,-390.137
1706145148.794,-695.801,22.461,24.414,-369.141,-682.617
1706145148.798,727.051,23.438,10.254,524.414,217.285
1706145148.802,982.910,35.645,20.020,520.020,716.797
1706145148.806,-425.293,40.527,39.551,-387.207,-160.645
1706145148.809,-980.957,30.273,26.855,-596.680,-705.566
1706145148.813,307.129,30.762,7.324,272.461,-69.336
1706145148.817,-805.176,42.969,11.230,687.988,807.129
1706145148.821,55.176,49.805,30.762,-137.695,167.480
1706145148.825,-1000.000,41.504,35.156,-712.891,-629.883
1706145148.826,-88.379,31.250,14.160,21.484,-205.566
1706145148.830,-801.270,35.156,8.789,720.703,735.352
1706145148.834,340.332,43.945,30.273,96.191,429.688
1706145148.838,-1000.000,39.062,34.180,-682.617,-519.043
1706145148.842,-437.500,28.320,15.625,-185.059,-501.953
1706145148.846,-995.117,32.715,10.254,661.133,444.824
1706145148.850,690.430,43.457,22.461,348.633,593.750
1706145148.853,-822.266,40.527,37.598,-539.551,-291.016
1706145148.857,-776.855,22.461,22.461,-436.035,-642.578
1706145148.861,620.117,24.414,10.254,452.148,151.367
1706145148.865,-937.500,37.598,17.090,578.613,783.203
1706145148.869,-269.531,39.551,32.227,-303.223,-26.367
1706145148.871,-1000.000,26.367,29.785,-619.141,-644.531
1706145148.875,184.082,19.531,14.648,219.238,-68.359
1706145148.879,-785.645,30.762,18.066,721.680,812.012
1706145148.883,132.324,39.062,35.156,-58.105,242.676
1706145148.887,-1000.000,29.297,32.227,-692.871,-667.480
1706145148.891,-158.691,20.020,18.066,-12.207,-409.180
1706145148.895,-828.125,24.414,17.090,723.633,645.508
1706145148.898,409.180,39.062,38.086,156.250,471.680
1706145148.902,-1000.000,35.156,45.898,-666.016,-467.285
1706145148.906,-515.137,19.531,25.879,-240.723,-520.996
1706145148.910,930.664,23.926,12.695,632.812,411.133
1706145148.914,798.828,37.109,26.367,402.832,643.066
1706145148.916,-696.289,37.109,40.039,-492.676,-325.195
1706145148.920,-854.492,23.438,24.414,-483.887,-720.215
1706145148.924,518.066,21.973,10.742,402.344,72.754
1706145148.928,-880.859,33.203,20.508,632.324,810.547
1706145148.932,-151.855,38.574,35.645,-230.469,61.035
1706145148.936,-1000.000,26.855,28.320,-645.020,-654.297
1706145148.940,107.910,19.531,14.648,150.391,-146.973
1706145148.943,-782.227,30.762,13.184,722.656,771.973
1706145148.947,202.148,41.992,26.855,-3.418,337.891
1706145148.951,-1000.000,36.133,32.227,-698.730,-545.410
1706145148.955,-248.535,25.879,14.648,-76.660,-369.629
1706145148.959,-867.676,32.715,6.836,720.703,630.371
1706145148.961,498.535,46.387,26.855,232.910,562.988
1706145148.965,-1000.000,45.410,40.039,-626.465,-376.465
1706145148.969,-610.352,31.738,16.113,-312.012,-541.504
1706145148.973,833.008,29.297,2.441,568.359,348.145
1706145148.977,900.391,44.434,20.996,477.539,712.402
1706145148.981,-560.059,48.828,39.551,-414.062,-190.918
1706145148.985,-923.828,31.738,27.344,-533.691,-659.668
1706145148.988,409.668,27.832,11.230,333.008,51.758
1706145148.992,-833.984,40.039,16.602,657.715,823.242
1706145148.996,-34.668,48.340,32.715,-178.711,135.254
1706145149.000,-1000.000,35.156,31.250,-675.781,-626.465
1706145149.004,10.254,24.414,14.160,100.098,-217.773
1706145149.007,-784.668,32.227,13.672,747.070,744.629
1706145149.011,273.926,46.387,34.668,57.129,355.469
1706145149.015,-1000.000,40.039,40.527,-697.754,-584.961
1706145149.019,-354.492,23.926,22.461,-148.438,-446.777
1706145149.023,-926.758,30.762,14.160,686.523,581.055
1706145149.027,590.820,46.387,30.273,269.043,599.609
1706145149.031,-925.781,44.922,40.527,-618.652,-359.375
1706145149.034,-700.195,29.297,21.484,-383.301,-624.023
1706145149.038,722.656,30.762,11.230,521.484,242.676
1706145149.042,985.352,43.945,21.484,524.414,754.883
1706145149.046,-420.410,44.922,35.156,-383.301,-128.906
1706145149.050,-989.746,34.180,26.367,-579.590,-709.473
1706145149.066,297.852,32.715,13.184,287.109,-41.504
1706145149.070,-802.246,40.527,19.043,685.547,834.473
1706145149.074,59.082,41.992,34.668,-127.441,188.965
1706145149.078,-1000.000,31.738,34.668,-690.918,-667.480
1706145149.082,-85.449,25.879,16.602,39.551,-304.199
1706145149.086,-797.852,34.668,15.137,729.492,671.875
1706145149.090,339.355,46.875,36.133,94.238,394.531
1706145149.093,-1000.000,40.527,41.016,-681.152,-526.855
1706145149.097,-433.105,27.344,18.555,-185.547,-468.750
1706145149.101,-989.746,30.273,7.324,657.715,509.766
1706145149.105,693.359,44.434,23.438,343.750,635.254
1706145149.109,-817.383,42.480,41.992,-552.246,-304.199
1706145149.112,-784.180,26.367,28.809,-443.848,-663.086
1706145149.116,615.723,25.879,10.742,451.660,158.691
1706145149.120,-943.359,39.551,21.484,579.590,799.805
1706145149.124,-285.156,40.527,40.527,-304.688,-36.621
1706145149.128,-1000.000,25.391,30.762,-621.582,-691.895
1706145149.132,189.453,24.902,11.719,213.379,-103.027
1706145149.136,-787.109,37.109,13.184,721.191,838.867
1706145149.139,142.578,40.039,32.715,-52.734,279.297
1706145149.143,-1000.000,25.879,41.016,-709.473,-641.113
1706145149.147,-187.012,16.113,25.391,-40.527,-343.262
1706145149.151,-829.590,25.391,16.602,718.750,680.176
1706145149.155,416.992,36.133,34.180,165.527,496.582
1706145149.156,-1000.000,33.203,43.945,-665.039,-480.469
1706145149.160,-522.461,22.461,20.996,-253.906,-587.891
1706145149.164,925.293,26.367,8.789,615.234,390.137
1706145149.168,803.223,38.574,26.855,404.297,716.797
1706145149.172,-687.500,38.086,39.551,-498.535,-185.547
1706145149.176,-867.676,21.484,20.508,-503.906,-674.316
1706145149.180,496.582,20.996,5.859,382.812,67.871
1706145149.183,-875.488,38.574,15.625,608.887,805.664
1706145149.187,-139.648,43.457,33.203,-248.535,90.332
1706145149.191,-1000.000,29.297,24.414,-659.180,-688.477
1706145149.195,95.215,22.461,5.859,147.949,-213.379
1706145149.199,-781.738,30.762,9.766,725.098,792.480
1706145149.201,206.543,41.504,23.926,-16.602,335.938
1706145149.205,-1000.000,32.227,23.438,-699.707,-569.824
1706145149.209,-256.836,18.066,14.160,-78.125,-397.461
1706145149.213,-869.141,25.391,11.719,698.242,627.930
1706145149.217,504.883,39.551,31.738,220.703,520.020
1706145149.221,-1000.000,36.621,41.992,-623.047,-490.234
1706145149.225,-616.699,24.414,21.973,-313.477,-669.922
1706145149.228,824.707,26.855,3.906,560.059,300.293
1706145149.232,906.738,40.527,11.230,462.402,710.449
1706145149.236,-549.805,41.992,37.598,-435.059,-195.312
1706145149.240,-927.734,22.949,29.297,-539.551,-670.898
1706145149.244,405.273,20.508,11.719,332.031,25.879
1706145149.247,-831.543,33.203,16.602,653.320,842.773
1706145149.251,-27.344,38.086,32.715,-178.711,139.648
1706145149.255,-1000.000,28.809,32.715,-674.805,-668.457
1706145149.259,2.441,23.438,16.602,91.309,-229.004
1706145149.263,-784.668,29.785,11.719,736.816,781.738
1706145149.267,274.902,38.574,31.250,60.059,407.227
1706145149.271,-1000.000,28.809,33.691,-686.523,-545.898
1706145149.274,-355.469,14.160,11.230,-153.320,-450.195
1706145149.278,-930.176,21.973,-1.465,653.809,568.848
1706145149.282,598.633,36.133,12.207,270.020,596.680
1706145149.286,-917.969,35.645,35.645,-590.332,-412.598
1706145149.290,-701.660,18.555,27.832,-375.488,-664.062
1706145149.291,719.238,18.066,15.625,510.742,247.070
1706145149.295,990.723,36.133,27.344,529.297,751.953
1706145149.299,-411.621,40.527,43.457,-364.258,-123.047
1706145149.303,-983.887,28.320,32.715,-580.566,-730.469
1706145149.307,301.270,25.391,13.184,275.879,-81.543
1706145149.311,-802.246,33.203,17.578,691.895,841.797
1706145149.315,62.500,41.016,37.598,-116.699,209.961
1706145149.318,-1000.000,31.250,36.621,-696.289,-637.207
1706145149.322,-89.355,23.438,16.113,20.020,-259.766
1706145149.326,-800.781,36.133,13.184,723.145,771.484
1706145149.330,345.215,45.898,30.273,103.516,465.332
1706145149.334,-1000.000,36.133,35.156,-672.363,-491.699
1706145149.336,-439.453,23.438,16.602,-193.359,-486.816
1706145149.340,-992.676,28.809,5.371,645.996,497.070
1706145149.344,702.148,41.992,21.484,345.215,662.109
1706145149.348,-806.152,37.598,40.039,-537.109,-364.258
1706145149.352,-791.016,20.508,22.949,-425.781,-743.652
1706145149.356,604.980,20.996,7.812,461.914,166.504
1706145149.360,-936.523,33.691,15.625,574.219,806.152
1706145149.363,-271.484,37.109,31.738,-307.129,-69.824
1706145149.367,-1000.000,23.926,28.809,-616.211,-760.254
1706145149.371,187.988,22.461,13.672,214.844,-141.602
1706145149.375,-786.133,32.715,13.672,713.867,862.305
1706145149.379,141.602,40.527,29.785,-65.918,299.805
1706145149.381,-1000.000,31.250,34.180,-705.566,-647.461
1706145149.385,-193.359,20.020,18.555,-36.133,-357.910
1706145149.389,-833.984,27.344,11.719,718.262,696.777
1706145149.393,424.805,40.039,30.273,185.547,519.531
1706145149.397,-1000.000,34.668,39.062,-639.160,-457.031
1706145149.401,-529.785,25.391,24.902,-258.301,-584.961
1706145149.405,917.480,32.715,19.531,605.469,372.559
1706145149.408,809.570,41.016,24.414,410.156,703.613
1706145149.412,-677.734,40.039,31.250,-488.770,-218.750
1706145149.416,-873.047,24.902,22.949,-489.258,-677.246
1706145149.420,488.281,24.902,11.719,399.902,99.609
1706145149.424,-874.023,39.062,17.578,622.559,875.977
1706145149.441,-135.254,42.969,35.156,-232.422,55.176
1706145149.445,-1000.000,30.762,29.785,-642.090,-743.652
1706145149.449,87.891,24.414,12.207,146.484,-172.363
1706145149.453,-780.762,31.738,7.812,724.609,844.238
1706145149.457,211.914,41.016,23.926,-3.418,354.004
1706145149.461,-1000.000,33.691,32.715,-703.613,-619.141
1706145149.465,-269.043,21.973,17.090,-95.215,-403.320
1706145149.468,-876.465,29.785,15.137,685.059,672.852
1706145149.472,506.348,42.969,30.762,222.656,577.148
1706145149.476,-999.023,39.551,31.738,-618.164,-470.215
1706145149.480,-626.953,22.461,16.602,-318.848,-688.477
1706145149.484,808.594,22.949,11.230,554.688,332.031
1706145149.486,905.762,37.598,20.508,460.938,791.504
1706145149.490,-548.828,39.551,32.715,-438.965,-170.410
1706145149.494,-936.523,23.438,21.484,-550.293,-774.902
1706145149.498,389.160,22.461,9.277,320.312,-22.461
1706145149.502,-830.078,35.645,14.648,641.602,898.926
1706145149.506,-21.973,41.992,32.227,-188.965,143.066
1706145149.510,-1000.000,31.250,30.762,-671.875,-732.910
1706145149.513,-6.836,24.414,17.090,92.285,-264.160
1706145149.517,-786.621,33.203,13.672,724.121,782.227
1706145149.521,276.855,42.969,29.785,45.410,358.398
1706145149.525,-1000.000,34.668,39.062,-690.430,-607.422
1706145149.529,-359.863,20.996,21.484,-146.484,-450.195
1706145149.531,-936.035,27.832,3.906,663.086,612.305
1706145149.535,605.469,39.551,20.020,276.855,633.789
1706145149.539,-908.691,35.645,41.016,-587.891,-376.953
1706145149.543,-705.078,22.949,27.344,-386.719,-654.785
1706145149.547,708.984,24.414,12.695,501.465,239.746
1706145149.551,993.652,37.109,22.461,529.297,791.992
1706145149.555,-402.832,41.504,39.062,-359.863,-97.656
1706145149.558,-988.770,29.785,30.273,-593.750,-718.750
1706145149.562,291.504,26.855,15.625,250.977,-76.660
1706145149.566,-801.270,34.668,13.672,679.199,870.605
1706145149.570,65.918,41.504,29.297,-122.559,259.766
1706145149.574,-1000.000,33.691,34.180,-690.918,-649.902
1706145149.576,-92.285,25.391,16.602,20.508,-293.457
1706145149.580,-810.059,32.715,11.230,714.355,753.418
1706145149.584,351.562,41.504,30.273,110.840,459.473
1706145149.588,-1000.000,30.762,40.527,-672.852,-554.199
1706145149.592,-439.453,16.602,23.438,-199.707,-537.598
1706145149.596,-995.117,20.996,14.648,644.043,534.180
1706145149.600,708.984,37.598,28.809,349.609,681.641
1706145149.603,-797.852,37.109,40.527,-538.086,-336.426
1706145149.607,-797.852,20.508,23.438,-449.707,-678.223
1706145149.611,596.191,23.926,8.301,435.547,193.848
1706145149.615,-933.105,38.086,17.090,563.965,859.863
1706145149.619,-263.672,41.016,35.645,-312.988,-9.277
1706145149.621,-1000.000,26.855,30.762,-627.930,-777.832
1706145149.625,178.223,24.414,9.766,198.730,-151.367
1706145149.629,-786.133,38.574,10.254,713.867,882.812
1706145149.633,142.090,46.875,32.715,-49.316,285.645
1706145149.637,-1000.000,34.668,36.133,-702.148,-705.566
1706145149.641,-188.477,22.461,19.531,-43.457,-382.812
1706145149.645,-842.285,30.273,15.625,702.637,735.840
1706145149.648,425.781,41.016,32.715,158.203,506.348
1706145149.652,-1000.000,37.598,38.574,-664.062,-528.320
1706145149.656,-541.016,23.926,19.531,-269.043,-620.605
1706145149.660,900.391,23.926,9.766,596.191,380.859
1706145149.664,813.477,34.180,25.391,396.973,703.613
1706145149.666,-677.734,37.109,41.016,-490.234,-216.797
1706145149.670,-869.141,27.832,27.832,-497.559,-676.270
1706145149.674,498.047,29.785,12.207,376.465,71.777
1706145149.678,-872.559,40.527,15.137,610.352,871.094
1706145149.682,-130.371,41.504,30.273,-250.000,35.156
1706145149.686,-1000.000,30.273,28.320,-661.621,-762.695
1706145149.690,76.660,27.344,10.742,132.324,-219.238
1706145149.693,-782.227,35.156,5.859,708.984,825.195
1706145149.697,212.891,41.992,24.414,-12.695,350.586
1706145149.701,-1000.000,35.156,34.668,-712.402,-704.102
1706145149.705,-275.391,25.879,17.578,-96.191,-472.168
1706145149.709,-883.301,30.762,8.301,692.871,633.301
1706145149.712,507.324,42.969,26.855,222.168,594.727
1706145149.716,-999.023,40.039,39.062,-623.535,-452.148
1706145149.720,-628.418,23.926,20.996,-322.754,-654.785
1706145149.724,801.758,26.855,10.254,546.387,367.188
1706145149.728,917.480,41.504,23.438,460.938,759.766
1706145149.732,-529.297,42.969,36.133,-414.062,-213.379
1706145149.736,-942.383,28.320,22.461,-529.785,-763.184
1706145149.739,378.906,26.855,8.301,318.848,12.207
1706145149.743,-826.172,41.504,13.672,642.090,909.180
1706145149.747,-15.137,47.363,30.762,-181.152,162.109
1706145149.751,-1000.000,36.133,29.297,-678.223,-724.121
1706145149.755,-4.883,29.297,11.230,83.496,-263.672
1706145149.756,-787.109,36.621,7.324,725.098,816.895
1706145149.760,283.203,45.898,26.367,51.270,404.785
1706145149.764,-1000.000,36.133,32.715,-692.871,-656.250
1706145149.768,-370.605,22.461,12.695,-147.949,-509.766
1706145149.772,-941.406,27.832,4.395,678.223,576.660
1706145149.776,607.910,44.922,25.879,284.180,601.074
1706145149.780,-908.203,43.945,41.016,-592.773,-413.574
1706145149.783,-710.449,27.832,18.555,-388.672,-720.703
1706145149.787,707.031,27.832,6.836,501.465,242.676
1706145149.791,997.070,37.109,22.461,529.297,823.730
1706145149.795,-396.973,40.039,37.109,-368.652,-108.887
1706145149.799,-988.770,26.855,27.344,-601.562,-776.367
1706145149.816,281.250,20.996,9.277,264.160,-103.516
1706145149.820,-801.270,31.250,11.719,697.754,899.902
1706145149.824,73.730,37.598,29.785,-109.863,215.820
1706145149.828,-1000.000,30.273,30.273,-688.965,-742.676
1706145149.832,-99.121,24.414,11.719,19.043,-309.082
1706145149.836,-810.059,31.250,5.371,715.332,767.578
1706145149.840,358.398,42.480,23.438,116.211,472.168
1706145149.843,-1000.000,39.062,32.715,-671.387,-546.875
1706145149.847,-449.219,26.367,13.672,-208.008,-540.039
1706145149.851,991.699,31.250,7.324,631.348,506.348
1706145149.855,718.262,44.922,26.367,350.098,667.969
1706145149.859,-789.062,41.992,35.156,-506.348,-305.176
1706145149.861,-792.480,25.391,20.020,-423.828,-678.711
1706145149.865,601.074,26.367,15.137,435.547,181.152
1706145149.869,-926.758,38.086,22.949,571.777,881.348
1706145149.873,-251.953,41.016,39.062,-293.457,-35.645
1706145149.877,-1000.000,29.297,32.715,-622.559,-801.758
1706145149.881,192.383,24.414,16.602,201.172,-145.020
1706145149.885,-786.133,33.691,17.090,706.543,898.438
1706145149.888,147.461,42.480,34.668,-49.805,300.781
1706145149.892,-1000.000,36.133,38.574,-681.152,-692.871
1706145149.896,-193.848,26.855,20.508,-33.691,-363.281
1706145149.900,-843.262,32.715,14.648,703.125,723.633
1706145149.904,433.594,42.969,29.785,169.922,538.086
1706145149.906,-1000.000,38.574,36.621,-637.695,-536.621
1706145149.910,-538.086,25.391,20.508,-260.742,-644.043
1706145149.914,899.414,26.367,13.672,596.680,421.387
1706145149.918,829.102,40.527,29.297,413.574,745.605
1706145149.922,-649.902,41.016,42.969,-481.445,-269.043
1706145149.926,-887.695,20.996,26.367,-493.164,-771.484
1706145149.930,469.238,17.578,13.184,375.000,62.012
1706145149.933,-867.676,30.273,22.461,614.258,885.742
1706145149.937,-122.559,35.156,39.062,-222.656,70.312
1706145149.941,-1000.000,23.926,30.762,-644.043,-795.898
1706145149.945,80.566,22.461,16.602,134.277,-233.887
1706145149.949,-782.715,32.227,17.578,719.238,862.793
1706145149.951,219.238,38.574,34.668,11.230,382.324
1706145149.955,-1000.000,28.320,40.527,-691.895,-689.453
1706145149.959,-287.598,18.066,17.578,-94.727,-551.270
1706145149.963,-891.113,24.902,7.812,691.406,636.719
1706145149.967,523.438,40.039,25.879,229.980,586.914
1706145149.971,-985.840,40.039,38.086,-616.699,-477.051
1706145149.975,-633.789,21.973,23.926,-330.078,-664.062
1706145149.978,792.480,22.949,14.648,539.551,334.473
1706145149.982,932.129,39.062,23.926,479.004,789.551
1706145149.986,-503.906,40.527,37.598,-403.320,-187.500
1706145149.990,-947.266,24.902,25.879,-545.410,-772.461
1706145149.994,370.605,22.461,12.207,305.664,17.578
1706145149.997,-822.266,33.203,17.090,637.695,927.246
1706145150.001,-1.953,38.574,32.715,-173.828,194.336
1706145150.005,-1000.000,24.902,33.691,-665.039,-702.637
1706145150.009,-25.391,17.090,15.625,72.266,-250.000
1706145150.013,-791.016,27.832,9.766,704.102,836.426
1706145150.017,286.621,40.527,30.273,48.828,451.172
1706145150.021,-1000.000,34.668,36.621,-680.176,-553.711
1706145150.024,-371.094,23.438,18.066,-145.508,-495.605
1706145150.028,-946.289,28.809,5.859,662.598,581.543
1706145150.032,616.699,41.016,20.508,282.227,644.043
1706145150.036,-897.461,38.086,41.504,-582.031,-379.395
1706145150.040,-714.844,23.926,26.855,-387.695,-685.547
1706145150.041,697.266,25.879,12.207,490.723,251.953
1706145150.045,-995.117,37.109,22.949,535.645,850.098
1706145150.049,-382.324,39.062,41.504,-344.238,-92.285
1706145150.053,-994.629,24.902,33.691,-582.031,-779.297
1706145150.057,278.809,25.391,17.090,262.207,-103.516
1706145150.061,-798.828,40.527,17.578,692.871,906.250
1706145150.065,77.148,45.410,35.645,-101.074,239.746
1706145150.068,-1000.000,29.297,42.480,-684.082,-677.246
1706145150.072,-115.723,17.578,26.855,15.137,-289.551
1706145150.076,-812.500,25.391,19.043,700.195,795.898
1706145150.080,362.793,36.133,34.668,104.980,463.379
1706145150.084,-1000.000,33.203,43.457,-655.762,-615.234
1706145150.087,-465.332,20.508,28.320,-206.055,-567.871
1706145150.091,976.562,25.879,18.066,621.094,510.254
1706145150.095,725.586,42.480,31.738,345.703,698.242
1706145150.099,-780.273,40.039,42.480,-528.809,-338.867
1706145150.103,-805.664,22.949,26.367,-435.547,-690.918
1706145150.107,584.473,23.438,14.160,433.105,184.082
1706145150.111,-925.781,39.062,21.973,558.594,851.562
1706145150.114,-248.535,40.039,40.527,-291.016,13.184
1706145150.118,-1000.000,24.902,33.203,-603.027,-718.262
1706145150.122,173.340,21.484,10.254,215.332,-144.531
1706145150.126,-786.621,30.273,10.254,715.332,886.230
1706145150.130,158.691,38.086,36.133,-50.781,345.703
1706145150.131,-1000.000,29.785,42.969,-689.941,-687.012
1706145150.135,-194.336,18.066,23.926,-34.668,-443.359
1706145150.139,-839.355,24.902,17.578,708.496,680.176
1706145150.143,440.918,38.086,33.691,177.734,538.086
1706145150.147,-1000.000,31.738,45.410,-632.812,-501.465
1706145150.151,-555.176,17.578,28.320,-256.836,-612.305
1706145150.155,886.719,20.996,16.602,595.703,418.457
1706145150.158,829.590,32.715,26.855,421.875,749.512
1706145150.162,-652.832,34.668,40.039,-464.355,-295.410
1706145150.166,-886.230,21.973,23.926,-494.141,-789.062
1706145150.170,468.262,20.020,11.230,369.141,73.730
1706145150.174,-860.840,34.180,19.531,610.840,865.234
1706145150.191,-104.980,39.062,31.738,-228.027,52.246
1706145150.195,-1000.000,28.320,30.762,-647.949,-731.445
1706145150.199,68.848,26.367,15.625,136.230,-177.734
1706145150.203,-782.227,32.227,10.742,712.891,858.398
1706145150.207,225.586,40.039,29.297,-0.488,359.375
1706145150.211,-1000.000,34.180,35.156,-689.453,-687.012
1706145150.215,-292.480,20.996,14.160,-89.844,-471.191
1706145150.218,-892.090,25.879,6.836,694.824,624.023
1706145150.222,523.438,42.480,26.367,238.281,585.449
1706145150.226,-984.375,39.062,37.109,-618.164,-427.246
1706145150.230,-630.859,20.996,18.555,-346.191,-687.988
1706145150.234,791.992,26.367,8.789,528.809,312.988
1706145150.236,927.734,41.504,20.508,466.309,798.340
1706145150.240,-510.254,42.969,34.180,-416.992,-150.391
1706145150.244,-948.730,28.809,24.902,-544.922,-733.887
1706145150.248,368.164,27.344,11.719,312.500,-10.254
1706145150.252,-822.266,37.598,17.090,644.531,878.906
1706145150.256,-1.953,40.039,33.691,-169.922,136.719
1706145150.260,-1000.000,27.344,32.227,-671.387,-747.070
1706145150.263,-19.531,20.508,17.578,69.336,-314.941
1706145150.267,-789.062,30.273,14.648,709.473,797.852
1706145150.271,290.527,38.574,32.227,46.387,435.059
1706145150.275,-1000.000,31.250,39.551,-685.059,-601.074
1706145150.279,-373.535,20.508,17.578,-147.949,-524.902
1706145150.281,-954.102,24.902,7.324,658.691,551.270
1706145150.285,626.465,36.133,26.367,290.039,628.906
1706145150.289,-886.719,35.645,41.016,-565.918,-391.602
1706145150.293,-720.215,23.438,25.391,-379.883,-701.172
1706145150.297,687.988,25.879,13.184,485.352,242.676
1706145150.301,-984.863,39.062,21.973,524.414,834.961
1706145150.305,-362.793,40.039,37.109,-343.750,-86.914
1706145150.308,-1000.000,24.902,30.762,-573.242,-745.117
1706145150.312,263.672,21.484,13.672,260.742,-87.891
1706145150.316,-796.387,31.738,13.672,673.340,875.000
1706145150.320,85.938,39.062,31.738,-113.770,318.359
1706145150.324,-1000.000,26.855,34.180,-681.641,-595.215
1706145150.326,-107.422,17.090,15.625,24.414,-277.832
1706145150.330,-807.129,25.879,7.324,724.121,775.879
1706145150.334,368.164,39.062,26.855,119.629,490.234
1706145150.338,-1000.000,35.156,34.668,-662.598,-602.539
1706145150.342,-467.285,19.531,16.602,-204.590,-643.066
1706145150.346,969.727,24.414,8.301,630.859,469.238
1706145150.350,732.422,41.992,22.461,349.121,695.801
1706145150.353,-772.949,38.086,40.527,-525.391,-344.727
1706145150.357,-801.758,20.996,30.273,-438.965,-742.676
1706145150.361,585.938,23.926,12.695,427.734,148.438
1706145150.365,-920.898,36.133,20.508,567.871,863.770
1706145150.369,-233.398,38.574,38.574,-281.738,37.598
1706145150.371,-1000.000,25.879,31.738,-610.840,-731.934
1706145150.375,157.227,20.996,12.695,190.918,-106.934
1706145150.379,-785.645,28.320,12.695,694.336,916.016
1706145150.383,161.133,36.133,32.715,-50.781,315.430
1706145150.387,-1000.000,29.785,37.598,-677.246,-686.523
1706145150.391,-204.102,20.020,20.996,-35.156,-415.527
1706145150.395,-841.797,26.367,14.160,696.777,692.871
1706145150.398,438.477,40.039,33.203,174.805,527.344
1706145150.402,-1000.000,35.645,44.434,-636.230,-500.488
1706145150.406,-554.688,20.508,26.855,-263.672,-606.934
1706145150.410,880.371,25.391,14.648,580.078,427.246
1706145150.414,834.961,41.504,28.320,411.133,747.559
1706145150.417,-646.484,40.039,42.969,-457.520,-298.828
1706145150.421,-884.277,26.367,30.273,-489.258,-772.949
1706145150.425,472.656,27.832,17.090,372.559,68.848
1706145150.429,-861.328,36.133,20.996,616.211,860.840
1706145150.433,-104.492,39.062,37.109,-232.422,93.750
1706145150.437,-1000.000,29.785,35.645,-660.645,-744.141
1706145150.441,61.523,22.949,20.508,116.699,-234.863
1706145150.444,-783.691,30.762,16.113,701.172,838.867
1706145150.448,228.516,41.504,33.203,7.812,365.723
1706145150.452,-1000.000,36.621,42.969,-683.105,-688.965
1706145150.456,-272.461,25.879,26.855,-99.609,-483.887
1706145150.460,-880.371,29.785,14.648,685.547,655.273
1706145150.466,531.250,44.922,28.809,234.863,606.934
1706145150.470,-976.562,42.969,42.480,-615.234,-454.590
1706145150.474,-631.348,26.367,26.367,-333.984,-667.969
1706145150.478,798.828,28.320,15.137,536.133,359.375
1706145150.482,930.176,39.551,28.809,479.980,813.477
1706145150.486,-506.836,41.016,44.922,-402.832,-181.152
1706145150.490,-950.684,28.320,35.645,-546.875,-764.648
1706145150.493,359.863,22.949,20.508,303.711,-23.926
1706145150.497,-818.848,36.621,27.344,660.645,876.465
1706145150.501,9.766,45.410,47.363,-138.184,147.461
1706145150.505,-1000.000,29.297,38.574,-662.598,-755.859
1706145150.509,-29.785,20.996,15.625,63.477,-297.363
1706145150.506,-792.480,29.785,12.695,711.914,823.242
1706145150.510,298.828,43.457,32.227,59.082,426.758
1706145150.514,-1000.000,40.039,38.574,-677.734,-618.652
1706145150.518,-381.836,27.344,20.508,-152.344,-489.746
1706145150.522,-953.613,34.180,15.137,663.574,555.664
1706145150.526,628.418,47.363,34.180,305.664,628.906
1706145150.530,-885.742,46.387,46.875,-557.129,-375.977
1706145150.533,-722.168,29.785,29.297,-378.418,-745.117
1706145150.537,682.129,30.273,17.090,490.234,189.453
1706145150.541,-982.910,44.922,25.879,541.504,826.660
1706145150.545,-358.398,49.316,41.992,-334.473,-106.934
1706145150.549,-997.070,34.668,34.180,-576.660,-783.203
1706145150.566,267.578,28.809,16.602,255.859,-105.469
1706145150.570,-795.410,36.621,19.043,681.641,886.230
1706145150.574,91.797,41.016,38.086,-94.238,254.883
1706145150.578,-1000.000,32.715,40.527,-667.969,-705.078
1706145150.582,-113.770,26.367,22.949,25.391,-337.891
1706145150.586,-811.035,30.762,16.113,718.262,762.695
1706145150.590,372.559,40.527,31.738,118.652,480.957
1706145150.593,-1000.000,34.668,39.551,-670.898,-570.312
1706145150.597,-471.680,20.508,20.508,-219.727,-574.219
1706145150.601,967.285,27.832,15.137,629.883,491.699
1706145150.605,741.699,42.480,29.297,355.469,689.941
1706145150.609,-760.742,38.574,34.668,-527.832,-349.121
1706145150.611,-814.941,22.949,21.484,-455.078,-778.320
1706145150.615,569.824,23.926,8.301,415.039,134.766
1706145150.619,-914.062,36.133,13.672,563.965,874.023
1706145150.623,-221.680,41.504,29.297,-292.480,2.930
1706145150.627,-1000.000,31.250,22.461,-632.812,-732.422
1706145150.631,154.785,25.879,7.812,182.617,-138.184
1706145150.635,-785.156,33.691,9.277,707.520,839.844
1706145150.638,166.016,41.992,26.367,-54.199,316.895
1706145150.642,-1000.000,37.598,27.832,-706.543,-632.324
1706145150.646,-205.566,28.809,12.695,-55.664,-350.586
1706145150.650,-848.633,30.762,10.742,692.871,721.191
1706145150.654,446.289,41.992,30.273,183.105,518.066
1706145150.656,-1000.000,36.621,39.551,-630.859,-487.793
1706145150.660,-562.012,20.508,18.066,-275.879,-611.328
1706145150.664,875.977,26.367,7.812,578.125,396.973
1706145150.668,844.238,42.480,24.414,416.992,739.258
1706145150.672,-631.836,41.992,41.016,-460.938,-246.582
1706145150.676,-893.066,26.367,27.832,-501.465,-802.734
1706145150.680,457.520,25.879,14.648,370.117,-23.926
1706145150.683,-857.910,38.086,21.484,634.766,866.211
1706145150.687,-99.121,43.945,38.086,-199.707,116.211
1706145150.691,-1000.000,32.715,34.668,-636.230,-679.199
1706145150.695,71.777,27.344,16.602,119.629,-195.801
1706145150.699,-781.738,38.086,15.625,707.520,833.008
1706145150.702,234.375,45.898,34.668,17.090,371.582
1706145150.706,-1000.000,37.109,39.551,-675.293,-644.531
1706145150.710,-288.086,24.902,23.438,-87.891,-438.965
1706145150.714,-893.555,31.250,17.578,695.312,629.883
1706145150.718,538.574,49.316,33.691,252.930,585.449
1706145150.722,-971.680,43.457,45.898,-582.031,-411.621
1706145150.726,-641.602,23.926,27.832,-314.941,-642.578
1706145150.729,785.645,26.367,15.625,536.621,303.711
1706145150.733,940.430,34.668,29.297,480.957,744.629
1706145150.737,-493.652,35.156,44.922,-392.090,-161.621
1706145150.741,-948.242,28.809,37.109,-532.715,-722.168
1706145150.745,364.746,28.320,21.973,308.594,-48.340
1706145150.746,-819.336,33.691,19.531,658.691,845.703
1706145150.750,11.719,37.109,34.180,-142.090,205.078
1706145150.754,-1000.000,25.879,34.668,-655.762,-652.832
1706145150.758,-36.133,20.020,15.137,73.242,-235.840
1706145150.762,-788.086,33.203,11.230,712.891,821.289
1706145150.766,302.246,42.969,32.227,67.871,409.668
1706145150.770,-1000.000,34.180,38.574,-668.457,-608.887
1706145150.773,-398.438,19.531,21.973,-155.762,-518.066
1706145150.777,-966.309,24.414,13.672,652.832,556.152
1706145150.781,640.625,40.527,27.832,301.758,629.883
1706145150.785,-875.488,39.062,42.969,-551.270,-384.277
1706145150.789,-731.934,20.996,26.367,-382.812,-659.180
1706145150.791,677.246,22.949,13.672,479.492,223.145
1706145150.795,-979.004,37.109,24.902,532.227,796.387
1706145150.799,-353.516,37.598,43.945,-330.078,-91.309
1706145150.803,-1000.000,23.438,33.691,-567.383,-788.086
1706145150.807,257.324,21.973,14.648,255.371,-126.953
1706145150.811,-793.945,31.250,14.648,691.895,860.840
1706145150.815,103.027,35.156,29.785,-81.543,233.887
1706145150.818,-1000.000,24.902,35.645,-681.641,-701.660
1706145150.822,-132.324,19.043,17.090,-0.977,-313.477
1706145150.826,-812.012,28.320,11.230,703.125,755.859
1706145150.830,379.395,38.574,30.762,126.465,461.914
1706145150.834,-1000.000,32.227,36.621,-654.785,-550.781
1706145150.836,-481.445,18.555,20.020,-220.215,-600.098
1706145150.840,959.473,20.996,10.254,618.164,455.566
1706145150.844,746.582,37.109,27.832,374.023,700.684
1706145150.848,-757.324,39.551,43.945,-501.953,-319.824
1706145150.852,-815.918,19.531,26.855,-445.312,-709.961
1706145150.856,566.406,18.066,15.137,422.363,170.898
1706145150.860,-907.227,33.691,21.484,577.148,815.430
1706145150.863,-208.496,39.062,34.180,-281.250,-73.242
1706145150.867,-1000.000,27.832,29.297,-640.625,-781.738
1706145150.871,153.320,21.973,15.137,162.109,-155.273
1706145150.875,-782.715,29.297,15.137,698.730,836.914
1706145150.879,170.898,37.598,32.227,-39.062,309.082
1706145150.882,-1000.000,30.762,36.133,-673.828,-687.012
1706145150.886,-200.195,20.996,20.020,-32.227,-445.312
1706145150.890,-838.867,26.367,12.695,704.590,654.785
1706145150.894,452.148,34.180,29.297,182.129,506.836
1706145150.898,-1000.000,28.809,41.016,-640.625,-473.145
1706145150.902,-570.312,19.531,24.414,-275.879,-601.562
1706145150.906,866.211,24.414,15.137,578.125,363.770
1706145150.909,854.492,37.598,26.855,417.969,718.750
1706145150.913,-621.582,41.504,42.480,-455.566,-234.863
1706145150.917,-891.113,26.367,29.297,-506.836,-744.141
1706145150.921,460.938,24.902,12.207,350.098,32.227
1706145150.925,-854.492,37.598,18.066,625.000,869.629
1706145150.942,-86.426,41.504,33.691,-202.637,122.559
1706145150.946,-1000.000,32.715,32.227,-645.996,-716.309
1706145150.950,47.852,25.879,18.555,118.652,-223.633
1706145150.954,-781.738,30.762,15.625,713.867,828.125
1706145150.958,237.305,40.527,34.180,26.855,409.180
1706145150.962,-1000.000,33.203,41.504,-677.734,-604.980
1706145150.966,-303.711,20.996,20.508,-108.887,-476.074
1706145150.969,-902.832,23.926,7.324,671.875,626.953
1706145150.973,543.457,42.480,25.391,241.211,625.488
1706145150.977,-968.750,43.945,43.945,-586.426,-410.156
1706145150.981,-652.344,27.344,26.367,-330.078,-675.293
1706145150.985,775.879,26.367,12.207,515.625,290.039
1706145150.987,946.289,39.062,24.414,480.957,782.227
1706145150.991,-480.957,42.480,35.645,-381.836,-149.414
1706145150.995,-966.309,24.902,24.414,-549.805,-743.652
1706145150.999,333.496,19.043,12.207,278.809,-13.184
1706145151.003,-813.477,31.738,17.578,648.438,861.816
1706145151.007,25.879,36.621,38.086,-130.371,164.062
1706145151.011,-1000.000,23.438,40.039,-665.039,-704.102
1706145151.014,-37.109,19.043,20.020,48.828,-290.527
1706145151.018,-790.527,29.297,17.578,707.031,785.156
1706145151.022,312.012,41.992,36.621,66.406,423.340
1706145151.026,-1000.000,36.621,40.039,-684.082,-631.348
1706145151.030,-393.066,22.949,20.996,-180.176,-518.066
1706145151.031,-959.473,26.367,12.695,639.160,548.340
1706145151.035,638.184,39.062,27.832,304.199,626.465
1706145151.039,-875.000,36.133,39.062,-551.758,-375.000
1706145151.043,-737.793,20.020,20.996,-389.160,-718.750
1706145151.047,666.992,21.973,10.254,465.332,220.215
1706145151.051,-973.633,35.156,23.926,523.438,830.566
1706145151.055,-342.773,39.551,39.551,-327.637,-62.012
1706145151.058,-1000.000,26.855,30.273,-591.309,-722.168
1706145151.062,243.652,22.949,15.137,223.145,-135.742
1706145151.066,-792.969,33.691,16.602,671.387,834.961
1706145151.070,104.980,42.969,30.762,-89.844,255.859
1706145151.074,-1000.000,36.621,32.227,-675.293,-654.785
1706145151.091,-133.789,26.367,16.602,1.953,-299.316
1706145151.095,-813.477,31.738,13.184,707.031,774.902
1706145151.099,384.766,41.992,30.762,131.836,505.371
1706145151.103,-1000.000,36.133,38.574,-645.508,-546.387
1706145151.107,-500.488,22.461,16.113,-212.891,-569.824
1706145151.111,952.148,26.855,4.883,607.910,463.867
1706145151.115,755.859,40.527,26.855,363.281,668.945
1706145151.118,-746.094,40.527,45.898,-502.930,-312.500
1706145151.122,-830.078,23.926,29.785,-449.219,-704.590
1706145151.126,552.734,26.367,12.207,418.945,133.789
1706145151.130,-903.809,40.039,20.508,579.590,861.328
1706145151.134,-203.613,42.969,38.086,-268.066,22.461
1706145151.122,-1000.000,30.273,32.715,-623.535,-735.840
1706145151.126,144.531,25.879,16.602,173.828,-140.137
1706145151.130,-783.691,37.598,14.160,703.125,875.488
1706145151.134,179.688,45.410,26.367,-33.691,335.449
1706145151.138,-1000.000,35.645,32.715,-683.105,-654.297
1706145151.142,-238.770,22.461,17.090,-62.012,-437.500
1706145151.146,-857.910,25.879,9.766,686.035,641.113
1706145151.149,462.891,39.062,24.414,187.012,540.039
1706145151.153,-1000.000,42.969,36.621,-616.211,-473.633
1706145151.157,-572.266,28.809,20.996,-268.555,-586.914
1706145151.161,862.793,24.902,8.789,566.406,400.879
1706145151.165,860.840,37.598,24.902,417.480,713.379
1706145151.167,-609.375,36.621,38.086,-461.426,-192.871
1706145151.171,-906.250,21.973,24.414,-514.160,-679.199
1706145151.175,444.336,21.973,11.230,349.609,41.016
1706145151.179,-850.098,33.691,17.090,618.164,859.375
1706145151.183,-79.590,38.574,32.715,-196.777,102.051
1706145151.187,-1000.000,29.297,24.414,-640.625,-759.766
1706145151.191,42.480,19.531,5.859,108.887,-282.227
1706145151.194,-783.203,24.902,10.254,703.125,768.555
1706145151.198,242.676,36.621,30.762,17.578,358.398
1706145151.202,-1000.000,31.250,38.086,-677.734,-625.488
1706145151.206,-304.199,21.973,19.531,-100.098,-486.328
1706145151.210,-907.715,26.855,11.719,682.617,598.145
1706145151.211,556.641,39.551,30.762,249.512,565.918
1706145151.215,-955.566,37.598,41.992,-588.379,-450.195
1706145151.219,-665.039,22.461,21.484,-336.426,-661.133
1706145151.223,761.719,24.902,8.301,513.672,298.828
1706145151.227,954.590,40.527,21.973,473.633,785.156
1706145151.231,-468.262,42.480,34.180,-389.648,-141.113
1706145151.235,-967.285,25.391,23.438,-539.062,-750.488
1706145151.238,334.961,24.414,12.207,291.992,-54.199
1706145151.242,-812.012,35.645,18.066,647.949,858.887
1706145151.246,23.926,39.062,38.574,-141.113,168.457
1706145151.250,-1000.000,29.297,39.551,-652.344,-731.934
1706145151.254,-36.621,27.344,19.531,66.895,-333.008
1706145151.256,-791.992,37.598,11.719,703.125,762.695
1706145151.260,313.965,43.945,28.320,60.059,449.707
1706145151.264,-1000.000,35.645,39.062,-680.176,-585.449
1706145151.268,-402.344,24.414,22.461,-168.457,-557.617
1706145151.272,-976.562,26.367,11.719,645.996,509.277
1706145151.276,657.715,37.598,28.320,314.941,632.324
1706145151.280,-852.539,37.598,39.062,-558.594,-377.441
1706145151.283,-757.812,22.949,22.461,-411.133,-740.234
1706145151.287,647.949,24.414,12.695,471.680,208.008
1706145151.291,-969.238,42.969,19.531,541.504,803.711
1706145151.295,-335.449,47.363,30.762,-324.219,-90.332
1706145151.299,-1000.000,29.297,28.320,-592.285,-729.004
1706145151.316,236.328,25.391,15.625,220.215,-91.309
1706145151.320,-791.992,36.621,18.555,672.363,864.258
1706145151.324,109.375,44.434,35.156,-82.031,252.441
1706145151.328,-1000.000,36.133,34.180,-669.434,-647.949
1706145151.332,-144.043,26.855,14.648,-4.883,-313.477
1706145151.336,-821.289,34.180,9.277,692.871,750.000
1706145151.340,390.625,46.875,28.809,127.930,467.285
1706145151.343,-1000.000,40.527,38.574,-655.762,-561.523
1706145151.347,-494.141,26.855,22.949,-230.957,-542.969
1706145151.351,942.383,30.273,12.695,605.957,469.238
1706145151.355,766.602,42.969,28.809,368.164,669.922
1706145151.359,-730.469,43.457,41.992,-497.559,-298.340
1706145151.361,-833.496,29.785,26.855,-445.801,-739.746
1706145151.365,541.504,29.785,13.184,417.480,84.473
1706145151.369,-898.926,41.016,19.043,574.707,863.770
1706145151.373,-188.477,42.480,37.109,-271.484,6.836
1706145151.377,-1000.000,28.320,34.180,-627.930,-769.531
1706145151.381,128.418,26.855,18.066,167.969,-166.992
1706145151.385,-782.715,38.086,17.090,705.566,850.586
1706145151.388,175.781,43.945,35.156,-30.762,307.617
1706145151.392,-1000.000,38.574,37.598,-684.570,-651.367
1706145151.396,-220.215,29.297,18.066,-61.035,-395.508
1706145151.400,-861.328,31.738,6.836,684.082,680.176
1706145151.404,474.121,42.480,23.926,187.988,561.523
1706145151.407,-1000.000,39.551,41.016,-606.934,-455.566
1706145151.411,-578.613,25.879,25.391,-271.484,-590.332
1706145151.415,858.398,32.715,16.113,557.129,381.836
1706145151.419,868.652,51.270,29.297,431.152,758.301
1706145151.423,-600.098,48.340,39.062,-437.500,-178.711
1706145151.427,-902.344,28.809,24.414,-500.977,-695.312
1706145151.431,442.383,25.391,13.184,365.723,47.363
1706145151.434,-847.168,36.133,20.508,648.438,879.883
1706145151.438,-65.918,43.457,38.086,-187.012,137.207
1706145151.442,-1000.000,33.691,35.156,-657.227,-705.078
1706145151.446,30.762,27.344,15.137,97.656,-212.402
1706145151.450,-785.645,38.574,11.230,703.613,835.449
1706145151.452,252.441,46.875,29.297,26.367,418.945
1706145151.456,-1000.000,34.180,38.574,-671.387,-546.875
1706145151.460,-323.730,21.484,19.531,-112.793,-439.941
1706145151.464,-916.016,27.344,7.812,671.387,571.777
1706145151.468,571.777,41.016,25.879,257.812,569.336
1706145151.472,-940.430,39.551,37.109,-578.613,-420.410
1706145151.476,-667.480,27.344,17.090,-333.496,-685.059
1706145151.479,757.324,28.320,3.906,523.926,248.535
1706145151.483,961.914,37.598,19.531,479.980,743.652
1706145151.487,-457.031,41.504,33.691,-407.715,-179.199
1706145151.491,-965.332,27.344,22.461,-567.871,-754.395
1706145151.495,333.984,23.438,12.695,278.320,-60.059
1706145151.497,-811.035,36.133,17.578,656.738,855.957
1706145151.501,36.133,43.457,39.551,-129.883,212.891
1706145151.505,-1000.000,32.227,38.574,-665.039,-676.270
1706145151.509,-61.035,26.367,18.066,48.828,-302.734
1706145151.513,-797.363,34.668,13.184,707.031,760.254
1706145151.517,332.031,40.039,31.738,89.844,450.684
1706145151.521,-1000.000,34.180,40.039,-661.621,-600.586
1706145151.524,-413.574,20.020,22.461,-179.688,-563.965
1706145151.528,-984.863,22.949,16.602,627.930,506.348
1706145151.532,687.500,37.598,30.762,315.430,624.023
1706145151.536,-820.801,36.621,41.992,-533.691,-348.145
1706145151.540,-762.695,22.949,25.879,-408.203,-661.133
1706145151.541,639.648,25.391,14.160,453.613,226.074
1706145151.545,-952.637,39.551,22.949,552.246,853.027
1706145151.549,-301.270,43.945,36.133,-290.039,-32.715
1706145151.553,-1000.000,28.320,29.297,-575.684,-722.656
1706145151.557,227.539,23.438,15.137,226.562,-99.121
1706145151.561,-790.039,36.133,15.625,689.941,876.953
1706145151.565,125.488,43.945,32.715,-62.500,236.816
1706145151.568,-1000.000,31.738,35.645,-672.363,-698.730
1706145151.572,-156.250,20.996,18.555,-13.672,-325.684
1706145151.576,-826.660,29.297,16.113,697.266,717.773
1706145151.580,408.203,41.504,33.203,143.555,477.539
1706145151.584,-1000.000,36.621,39.062,-645.508,-601.562
1706145151.586,-502.441,22.461,17.090,-238.281,-650.879
1706145151.590,938.477,27.832,9.766,590.820,461.914
1706145151.594,776.367,42.480,30.273,359.863,712.891
1706145151.598,-718.750,45.898,44.922,-493.652,-285.156
1706145151.602,-841.309,26.855,28.809,-446.777,-725.586
1706145151.606,534.180,20.508,13.184,414.551,99.121
1706145151.610,-893.555,33.203,20.020,595.703,848.633
1706145151.613,-179.688,37.598,34.180,-256.348,12.207
1706145151.617,-1000.000,28.320,27.832,-618.652,-710.449
1706145151.621,130.371,23.438,13.184,175.293,-149.902
1706145151.625,-782.715,35.156,13.672,697.266,808.594
1706145151.629,186.035,44.922,33.203,-31.250,326.172
1706145151.632,-1000.000,33.691,33.203,-678.711,-611.816
1706145151.636,-235.352,24.414,11.230,-52.246,-396.484
1706145151.640,-863.281,29.785,13.184,687.988,633.301
1706145151.644,477.051,43.945,33.691,191.406,519.531
1706145151.648,-1000.000,44.922,41.504,-617.188,-446.289
1706145151.652,-578.613,27.344,24.414,-287.598,-618.652
1706145151.656,855.957,31.250,12.695,558.105,295.410
1706145151.659,877.441,47.363,22.461,433.594,701.172
1706145151.663,-585.449,43.457,38.086,-423.828,-226.074
1706145151.667,-913.574,28.809,27.344,-492.188,-753.418
1706145151.671,425.781,27.832,13.672,356.445,30.273
1706145151.675,-842.285,38.574,17.090,642.090,877.930
1706145151.691,-56.152,43.945,31.250,-187.500,100.586
1706145151.695,-1000.000,32.227,29.297,-653.320,-720.703
1706145151.699,29.297,27.344,11.719,99.609,-234.375
1706145151.703,-785.156,35.156,12.695,702.637,791.016
1706145151.707,258.301,41.504,34.668,40.527,343.262
1706145151.711,-1000.000,34.668,40.039,-660.645,-673.828
1706145151.715,-340.332,25.879,19.531,-125.977,-477.051
1706145151.718,-929.199,30.273,9.277,656.250,603.516
1706145151.722,577.148,42.480,28.809,248.535,619.141
1706145151.726,-936.523,42.480,40.527,-584.473,-356.934
1706145151.730,-668.945,23.926,20.996,-338.867,-669.922
1706145151.734,749.512,20.020,10.254,513.184,216.797
1706145151.736,964.844,33.691,21.484,482.910,746.094
1706145151.740,-450.195,35.156,38.086,-381.348,-153.809
1706145151.744,-964.844,21.484,29.297,-556.152,-757.324
1706145151.748,330.078,21.973,8.789,273.926,-60.547
1706145151.752,-811.035,33.691,11.230,654.785,830.078
1706145151.756,36.133,38.086,30.273,-138.672,180.176
1706145151.760,-1000.000,30.273,30.762,-674.805,-712.891
1706145151.763,-54.199,23.438,14.160,45.898,-342.773
1706145151.767,-798.340,28.320,12.207,707.520,715.332
1706145151.771,323.730,37.598,30.273,82.520,415.527
1706145151.775,-1000.000,31.250,32.715,-666.504,-528.320
1706145151.779,-430.664,22.461,10.742,-179.199,-536.133
1706145151.781,-996.582,30.273,7.324,630.859,488.770
1706145151.785,683.105,42.969,29.297,310.547,595.703
1706145151.789,-827.148,40.527,41.504,-540.039,-342.773
1706145151.793,-764.160,29.297,27.344,-410.156,-614.746
1706145151.797,636.719,32.227,16.113,449.219,177.734
1706145151.801,-955.566,40.039,20.508,536.621,752.441
1706145151.805,-304.688,40.527,34.180,-320.312,-94.238
1706145151.808,-1000.000,26.367,28.809,-593.750,-716.797
1706145151.812,210.449,22.461,14.648,218.262,-130.859
1706145151.816,-790.039,30.762,15.625,679.199,795.898
1706145151.820,120.605,38.574,34.180,-73.242,276.855
1706145151.824,-1000.000,30.762,36.133,-669.434,-666.992
1706145151.826,-146.973,22.461,17.090,-1.953,-375.977
1706145151.830,-826.172,31.738,13.672,696.777,699.219
1706145151.834,403.320,46.387,32.227,139.160,452.148
1706145151.838,-1000.000,39.551,40.527,-629.883,-457.031
1706145151.842,-504.883,24.902,20.996,-229.980,-506.348
1706145151.846,928.711,28.809,12.695,584.961,392.578
1706145151.850,794.434,40.039,28.320,373.535,650.391
1706145151.853,-696.289,41.016,42.480,-473.633,-289.062
1706145151.857,-841.797,25.391,29.785,-449.219,-721.191
1706145151.861,529.297,25.391,15.625,399.902,56.641
1706145151.865,-884.766,38.086,21.484,592.773,786.133
1706145151.869,-153.809,41.504,38.086,-239.258,32.715
1706145151.872,-1000.000,28.320,32.227,-610.352,-681.152
1706145151.876,106.445,22.949,15.625,159.668,-177.734
1706145151.880,-783.691,34.180,16.113,684.082,755.371
1706145151.884,189.941,39.551,32.715,-30.762,280.762
1706145151.888,-1000.000,27.344,34.180,-687.500,-604.492
1706145151.892,-245.605,18.066,16.602,-73.242,-416.504
1706145151.896,-870.117,27.344,10.254,678.711,582.031
1706145151.899,485.352,41.016,26.855,189.941,488.281
1706145151.903,-1000.000,38.574,36.133,-627.441,-418.945
1706145151.907,-592.285,27.832,16.602,-302.734,-555.664
1706145151.911,835.938,31.738,10.254,545.898,292.480
1706145151.915,884.277,41.992,25.391,436.523,659.668
1706145151.932,-571.289,40.527,37.109,-430.176,-219.727
1706145151.936,-927.246,25.879,24.902,-531.250,-700.684
1706145151.940,404.785,25.391,10.742,309.082,34.180
1706145151.944,-841.797,35.645,12.695,609.863,781.250
1706145151.948,-53.223,41.504,27.344,-194.336,68.359
1706145151.952,-1000.000,31.250,26.367,-652.832,-649.902
1706145151.956,10.742,23.926,14.160,89.844,-201.172
1706145151.959,-790.039,31.250,13.672,687.012,688.965
1706145151.963,265.137,38.574,29.785,20.020,287.598
1706145151.967,-1000.000,31.738,32.227,-678.711,-565.430
1706145151.971,-333.984,21.973,14.648,-136.719,-405.762
1706145151.975,-921.875,26.367,8.301,650.879,519.531
1706145151.961,580.566,40.039,26.367,244.141,511.719
1706145151.965,-931.641,38.574,40.527,-585.938,-324.707
1706145151.969,-692.383,22.949,23.926,-342.285,-551.270
1706145151.973,726.074,24.414,9.277,502.930,218.262
1706145151.977,979.492,38.574,21.973,495.117,681.152
1706145151.981,-427.734,37.598,41.992,-361.816,-145.996
1706145151.985,-970.703,25.391,34.180,-557.129,-678.223
1706145151.988,320.312,28.320,16.113,270.996,-60.547
1706145151.992,-809.570,32.715,17.578,649.414,728.027
1706145151.996,43.457,32.715,34.668,-140.625,148.926
1706145152.000,-1000.000,21.973,36.621,-670.898,-625.000
1706145152.004,-79.590,15.137,20.508,32.715,-309.082
1706145152.006,-803.711,27.832,14.160,689.453,638.672
1706145152.010,334.961,41.504,31.738,78.125,362.793
1706145152.014,-1000.000,36.133,38.574,-666.016,-481.934
1706145152.018,-416.504,22.461,20.508,-187.500,-456.055
1706145152.022,-987.305,23.926,14.160,630.859,423.340
1706145152.026,683.594,37.109,33.691,324.707,503.418
1706145152.030,-823.242,37.109,45.898,-532.715,-343.750
1706145152.033,-773.926,21.484,27.344,-416.992,-631.348
1706145152.037,623.535,21.484,16.602,437.988,102.051
1706145152.041,-948.730,37.598,24.902,543.457,663.574
1706145152.045,-292.480,43.945,40.039,-305.664,-77.148
1706145152.049,-1000.000,28.320,33.203,-583.984,-650.879
1706145152.052,205.566,21.973,16.602,223.145,-110.840
1706145152.056,-787.598,30.762,18.066,672.363,730.957
1706145152.060,126.465,44.434,37.109,-83.496,203.125
1706145152.064,-1000.000,34.668,40.039,-673.828,-631.348
1706145152.068,-149.902,19.043,16.113,-0.488,-352.539
1706145152.072,-831.543,28.320,8.789,708.496,603.516
1706145152.076,414.062,39.062,34.668,135.254,395.020
1706145152.079,-1000.000,32.715,41.016,-648.926,-469.727
1706145152.083,-517.578,23.926,17.090,-237.305,-504.883
1706145152.087,920.410,32.715,12.695,596.191,317.383
1706145152.091,787.598,45.410,27.344,384.766,557.129
1706145152.095,-708.008,37.109,36.621,-479.980,-137.207
1706145152.111,-849.121,22.949,22.949,-457.031,-518.555
1706145152.115,523.926,25.879,10.254,395.508,59.082
1706145152.119,-884.766,39.062,13.184,597.168,701.172
1706145152.123,-160.156,44.434,27.832,-235.352,-8.301
1706145152.127,-1000.000,31.738,26.855,-622.070,-594.727
1706145152.131,121.094,30.273,9.766,141.113,-126.465
1706145152.135,-781.250,38.086,7.324,684.082,697.266
1706145152.138,199.219,43.457,26.855,-19.531,248.047
1706145152.142,-1000.000,37.109,32.715,-678.223,-545.410
1706145152.146,-242.188,25.391,17.578,-76.660,-334.473
1706145152.150,-872.559,28.809,9.277,678.711,559.082
1706145152.154,491.699,41.016,26.855,208.984,439.453
1706145152.156,-1000.000,36.621,37.109,-606.934,-470.215
1706145152.160,-592.285,23.438,19.531,-279.785,-575.195
1706145152.164,846.191,27.832,9.766,560.547,285.156
1706145152.168,888.184,37.109,16.113,438.477,620.605
1706145152.172,-571.777,36.621,30.273,-427.734,-149.414
1706145152.176,-920.410,22.949,20.996,-523.438,-590.332
1706145152.180,411.621,21.484,6.836,329.590,18.066
1706145152.183,-838.379,33.691,12.695,639.160,709.473
1706145152.187,-44.434,38.086,30.273,-178.223,106.445
1706145152.191,-1000.000,27.344,29.785,-647.949,-562.012
1706145152.195,20.508,23.438,9.277,90.820,-216.797
1706145152.199,-786.621,33.203,4.883,704.102,660.645
1706145152.201,269.043,41.992,30.273,50.293,299.805
1706145152.205,-1000.000,34.668,40.527,-659.180,-566.895
1706145152.209,-336.426,23.926,21.973,-104.980,-427.246
1706145152.213,-923.828,31.250,15.625,672.852,480.957
1706145152.217,590.820,42.480,31.738,269.043,481.934
1706145152.221,-921.875,38.574,43.457,-561.035,-341.797
1706145152.225,-688.965,25.391,26.855,-342.285,-583.496
1706145152.228,730.469,27.344,12.207,511.230,208.008
1706145152.232,981.445,41.992,22.461,499.512,668.457
1706145152.236,-422.852,45.410,39.062,-366.699,-121.582
1706145152.240,-973.145,28.809,32.227,-554.688,-614.258
1706145152.244,311.523,23.438,17.090,274.414,-33.203
1706145152.246,-806.641,33.203,18.066,659.668,733.887
1706145152.250,55.176,36.133,33.691,-130.371,142.578
1706145152.254,-1000.000,24.902,34.668,-654.297,-528.809
1706145152.258,-85.449,17.090,16.113,59.570,-182.617
1706145152.262,-805.176,24.902,12.207,698.242,655.762
1706145152.266,341.309,37.598,28.320,79.102,385.254
1706145152.270,-1000.000,33.691,33.203,-666.992,-500.488
1706145152.273,-427.734,20.508,11.719,-173.828,-491.211
1706145152.277,998.047,26.855,2.441,639.160,456.055
1706145152.281,694.336,43.457,26.855,318.848,578.613
1706145152.285,-814.941,39.551,41.504,-532.715,-302.246
1706145152.289,-763.184,21.973,18.555,-406.250,-578.125
1706145152.291,634.766,22.949,5.859,458.496,211.426
1706145152.295,-949.219,39.062,18.555,552.734,747.070
1706145152.299,-292.480,42.969,31.738,-303.223,-50.781
1706145152.303,-1000.000,28.320,23.438,-585.449,-598.145
1706145152.307,211.426,25.879,11.230,225.586,-56.641
1706145152.311,-788.574,38.574,12.207,681.641,771.484
1706145152.315,134.277,41.016,28.320,-65.430,265.137
1706145152.318,-1000.000,27.344,32.227,-657.227,-536.133
1706145152.322,-163.574,21.484,11.230,-15.137,-288.086
1706145152.326,-832.031,29.785,4.395,686.035,634.277
1706145152.330,416.016,43.457,24.902,145.508,484.375
1706145152.334,-1000.000,37.598,34.180,-637.207,-433.105
1706145152.337,-527.344,20.508,15.625,-242.676,-546.387
1706145152.341,916.504,27.832,11.719,586.914,406.250
1706145152.345,797.852,45.410,24.902,383.301,638.184
1706145152.349,-692.383,37.598,31.250,-477.051,-220.215
1706145152.353,-857.910,21.973,20.020,-469.727,-625.000
1706145152.357,509.277,27.344,12.207,382.812,52.246
1706145152.361,-879.883,38.086,20.996,591.309,752.930
1706145152.364,-149.414,40.039,35.645,-240.723,26.855
1706145152.368,-1000.000,27.344,32.227,-631.836,-622.559
1706145152.372,111.328,23.438,14.160,142.578,-112.305
1706145152.376,-784.180,36.133,13.184,697.754,772.461
1706145152.380,204.590,45.410,33.203,-20.020,294.434
1706145152.381,-1000.000,35.645,34.180,-673.828,-560.059
1706145152.385,-260.254,24.414,14.648,-66.406,-336.426
1706145152.389,-879.395,28.809,9.766,670.898,617.676
1706145152.393,498.535,40.039,27.344,199.707,562.012
1706145152.397,-1000.000,37.598,39.062,-609.863,-365.234
1706145152.401,-609.375,25.879,24.414,-303.711,-542.480
1706145152.405,823.242,28.320,15.625,537.109,317.383
1706145152.408,899.414,41.016,30.273,443.848,675.293
1706145152.412,-552.734,45.410,45.410,-405.762,-166.016
1706145152.416,-926.758,26.855,32.227,-506.348,-617.676
1706145152.420,399.414,20.020,15.625,322.754,69.824
1706145152.424,-835.938,32.227,15.625,625.000,811.523
1706145152.441,-35.156,37.109,35.645,-180.176,110.352
1706145152.445,-1000.000,26.367,34.668,-646.484,-638.672
1706145152.449,4.883,22.461,18.066,90.332,-150.879
1706145152.453,-791.016,32.227,15.625,696.289,781.250
1706145152.457,269.531,40.039,34.180,34.180,325.195
1706145152.461,-1000.000,30.273,41.992,-672.852,-570.312
1706145152.465,-351.074,19.531,21.484,-124.023,-425.781
1706145152.468,-937.988,23.438,11.230,656.738,520.020
1706145152.472,594.727,35.645,22.949,273.438,544.922
1706145152.476,-918.457,34.668,38.574,-555.664,-346.191
1706145152.480,-699.707,18.555,25.391,-360.352,-628.418
1706145152.484,717.285,19.043,10.254,484.375,226.074
1706145152.486,984.375,31.250,25.391,492.676,764.160
1706145152.490,-413.574,34.668,42.969,-364.746,-133.789
1706145152.494,-986.816,21.973,32.227,-570.312,-689.453
1706145152.498,290.527,18.555,17.090,266.602,-30.273
1706145152.502,-804.688,28.809,19.531,671.387,784.668
1706145152.506,59.570,36.133,34.668,-120.605,192.383
1706145152.510,-1000.000,23.926,35.156,-672.852,-608.887
1706145152.513,-95.215,15.137,19.043,29.785,-271.973
1706145152.517,-808.594,25.391,12.695,705.078,705.566
1706145152.521,346.680,41.504,33.203,99.609,431.152
1706145152.525,-1000.000,34.180,40.527,-662.109,-519.531
1706145152.529,-435.059,16.113,19.531,-195.801,-540.527
1706145152.531,995.605,20.996,13.672,623.535,468.750
1706145152.535,702.637,35.156,30.762,325.195,640.137
1706145152.539,-801.758,32.715,40.527,-513.184,-256.836
1706145152.543,-783.691,20.996,24.902,-404.297,-590.332
1706145152.547,611.328,24.902,13.184,430.664,179.688
1706145152.551,-938.965,37.109,21.484,544.434,780.762
1706145152.555,-275.879,41.016,36.133,-295.410,-30.273
1706145152.558,-1000.000,28.320,28.320,-585.938,-647.949
1706145152.562,205.566,26.855,13.672,212.891,-93.750
1706145152.566,-786.621,38.086,12.695,675.293,811.523
1706145152.570,137.695,46.387,34.180,-74.707,315.918
1706145152.574,-1000.000,40.527,42.969,-671.387,-571.777
1706145152.576,-177.734,30.273,22.461,-21.484,-340.332
1706145152.580,-842.285,34.180,9.766,681.641,645.508
1706145152.584,421.387,45.410,25.879,151.855,473.633
1706145152.588,-1000.000,38.086,39.551,-628.418,-446.289
1706145152.592,-518.555,23.438,19.531,-233.887,-504.883
1706145152.596,915.039,26.855,11.230,597.656,405.762
1706145152.600,807.129,40.527,30.273,394.531,652.344
1706145152.603,-679.688,43.945,41.504,-460.938,-258.789
1706145152.607,-854.004,27.344,24.414,-468.750,-685.059
1706145152.611,509.766,26.367,9.766,373.535,80.566
1706145152.615,-880.371,41.016,15.137,607.422,798.340
1706145152.619,-143.066,47.363,32.715,-214.844,45.410
1706145152.636,-1000.000,33.691,29.297,-615.723,-673.340
1706145152.640,97.168,28.320,16.602,154.297,-180.664
1706145152.644,-783.691,34.668,17.090,695.801,774.414
1706145152.648,207.520,36.621,32.227,-22.461,303.223
1706145152.652,-1000.000,28.809,40.527,-686.035,-595.215
1706145152.656,-266.113,20.508,20.996,-76.660,-385.254
1706145152.660,-886.230,26.855,9.766,682.617,621.582
1706145152.663,509.766,43.945,28.809,210.938,541.016
1706145152.667,-995.605,40.039,43.457,-602.539,-428.223
1706145152.671,-615.723,23.438,25.391,-300.293,-636.230
1706145152.675,816.895,28.809,9.766,540.527,274.414
1706145152.679,906.250,40.527,19.531,447.266,695.801
1706145152.666,-544.922,40.527,32.715,-411.621,-136.230
1706145152.670,-925.293,26.855,23.926,-506.348,-653.320
1706145152.674,404.785,24.414,13.672,327.637,26.367
1706145152.678,-834.473,34.668,20.996,627.930,835.449
1706145152.682,-32.227,38.574,38.086,-176.270,162.598
1706145152.686,-1000.000,27.832,40.527,-637.695,-651.367
1706145152.690,-1.953,21.484,25.391,109.375,-292.480
1706145152.693,-790.039,28.320,14.160,715.820,712.891
1706145152.697,277.344,39.551,28.320,53.223,355.957
1706145152.701,-1000.000,31.738,37.598,-660.645,-523.926
1706145152.705,-355.469,20.508,20.996,-125.488,-400.879
1706145152.709,-945.312,27.344,11.230,660.645,515.137
1706145152.711,603.027,40.527,26.855,266.602,530.762
1706145152.715,-908.691,37.109,39.062,-576.660,-393.555
1706145152.719,-700.195,21.973,17.090,-365.723,-646.973
1706145152.723,711.426,26.855,4.883,489.746,245.605
1706145152.727,991.699,39.062,20.996,504.883,762.695
1706145152.731,-401.855,41.016,37.109,-345.703,-152.344
1706145152.735,-988.281,26.855,28.320,-551.758,-695.801
1706145152.738,287.598,21.973,13.184,253.906,-29.297
1706145152.742,-803.223,32.227,15.137,650.391,826.660
1706145152.746,62.988,39.062,31.738,-115.234,164.062
1706145152.750,-1000.000,31.250,28.809,-656.250,-700.684
1706145152.754,-85.938,26.855,15.625,30.273,-316.895
1706145152.756,-812.012,38.086,15.137,684.570,716.797
1706145152.760,354.004,47.363,29.297,91.309,452.148
1706145152.764,-1000.000,40.527,35.645,-648.438,-500.488
1706145152.768,-449.219,26.855,16.113,-182.617,-521.973
1706145152.772,989.258,29.785,8.789,627.930,454.590
1706145152.776,702.148,42.480,26.855,333.008,616.211
1706145152.780,-805.176,41.504,38.086,-521.484,-391.602
1706145152.783,-784.180,31.250,23.438,-424.316,-696.289
1706145152.787,604.980,33.691,13.184,424.805,188.965
1706145152.791,-935.547,42.969,19.531,543.945,813.965
1706145152.795,-263.672,43.945,39.062,-292.480,-62.500
1706145152.799,-1000.000,31.738,33.691,-589.355,-733.398
1706145152.802,188.477,28.809,12.695,204.102,-76.660
1706145152.806,-788.574,38.086,10.254,676.270,832.520
1706145152.810,142.090,45.410,24.902,-66.895,280.762
1706145152.814,-1000.000,33.691,28.320,-673.340,-633.789
1706145152.818,-187.988,24.902,13.184,-32.715,-353.516
1706145152.822,-843.750,30.273,10.742,681.641,691.406
1706145152.826,427.734,41.016,29.297,156.738,484.375
1706145152.829,-1000.000,40.527,35.156,-631.836,-483.398
1706145152.833,-520.020,27.344,18.066,-258.301,-539.062
1706145152.837,913.574,32.227,10.254,573.242,385.742
1706145152.841,813.477,44.922,23.438,386.719,661.133
1706145152.845,-669.434,45.410,39.551,-469.727,-237.305
1706145152.862,-863.770,32.227,24.902,-467.285,-668.457
1706145152.866,497.559,27.832,5.859,377.930,83.984
1706145152.870,-877.441,33.691,12.207,589.844,787.598
1706145152.874,-138.672,37.598,30.762,-235.352,22.461
1706145152.878,-1000.000,30.762,32.715,-623.047,-709.961
1706145152.882,91.797,29.785,15.137,145.508,-200.684
1706145152.886,-786.621,32.715,6.348,691.895,779.785
1706145152.889,213.379,38.086,24.414,-8.301,285.156
1706145152.893,-1000.000,33.691,33.691,-664.551,-598.145
1706145152.897,-266.602,20.508,18.555,-74.219,-375.977
1706145152.901,-883.789,25.391,10.254,680.176,617.188
1706145152.905,514.160,39.551,28.809,223.145,540.039
1706145152.906,-993.652,35.645,40.039,-597.656,-437.012
1706145152.910,-610.840,21.484,22.461,-300.293,-574.707
1706145152.914,821.777,25.879,13.672,554.688,333.984
1706145152.918,912.598,40.527,26.367,467.285,727.051
1706145152.922,-533.691,40.039,39.551,-401.367,-181.641
1706145152.926,-932.617,24.414,25.879,-511.230,-712.891
1706145152.930,394.043,23.438,11.230,327.637,0.488
1706145152.933,-830.078,39.551,23.438,643.066,813.477
1706145152.937,-23.926,46.387,40.039,-154.297,123.535
1706145152.941,-1000.000,27.832,31.738,-637.207,-644.043
1706145152.945,-2.930,18.066,14.648,90.820,-208.008
1706145152.949,-792.480,31.738,11.719,712.402,756.348
1706145152.952,281.250,42.969,29.785,59.570,394.043
1706145152.956,-1000.000,35.156,35.645,-645.996,-504.883
1706145152.960,-340.332,22.949,22.949,-119.629,-397.461
1706145152.964,-935.059,24.414,18.066,648.438,568.359
1706145152.968,606.445,38.086,34.180,274.902,597.656
1706145152.972,-901.855,35.645,48.828,-559.570,-377.441
1706145152.976,-708.984,21.973,32.227,-358.398,-686.035
1706145152.979,703.613,22.461,17.578,485.352,220.215
1706145152.983,992.676,32.715,23.926,485.352,733.887
1706145152.987,-401.367,36.133,35.645,-368.652,-124.023
1706145152.991,-984.863,25.391,25.391,-571.289,-681.152
1706145152.995,290.039,23.926,11.719,253.906,-62.500
1706145152.996,-801.758,32.715,19.043,657.715,824.707
1706145153.000,67.871,42.969,35.645,-114.746,243.164
1706145153.004,-1000.000,34.180,38.574,-658.203,-592.773
1706145153.008,-87.402,22.461,20.508,34.668,-274.414
1706145153.012,-810.059,31.250,9.766,710.938,752.441
1706145153.016,355.957,42.480,30.273,109.375,456.543
1706145153.020,-1000.000,38.086,43.457,-650.879,-541.504
1706145153.023,-447.754,27.344,26.855,-192.383,-543.457
1706145153.027,983.887,31.738,13.672,615.234,484.375
1706145153.031,715.820,41.504,24.414,333.496,637.207
1706145153.035,-786.621,38.086,39.551,-509.766,-359.375
1706145153.039,-797.852,25.391,27.344,-409.180,-690.430
1706145153.041,593.750,27.344,13.672,442.383,162.598
1706145153.045,-930.176,36.621,22.949,552.734,807.129
1706145153.049,-256.836,38.574,33.691,-292.480,13.672
1706145153.053,-1000.000,26.367,24.902,-589.844,-673.828
1706145153.057,186.523,22.949,18.066,205.566,-144.043
1706145153.061,-787.109,33.691,22.949,685.547,810.547
1706145153.065,146.973,42.480,37.598,-57.129,227.539
1706145153.068,-1000.000,35.156,39.551,-676.270,-633.301
1706145153.072,-161.621,25.391,21.973,-35.645,-269.531
1706145153.076,-835.449,29.785,12.207,683.594,713.867
1706145153.080,441.406,42.480,30.762,173.340,523.926
1706145153.084,-1000.000,38.086,40.527,-611.816,-466.797
1706145153.087,-541.016,24.414,19.531,-246.582,-580.078
1706145153.091,900.391,28.320,10.742,583.496,398.926
1706145153.095,819.824,43.945,24.414,391.113,675.781
1706145153.099,-664.551,45.898,36.133,-479.980,-305.176
1706145153.103,-866.211,31.250,20.996,-484.863,-717.285
1706145153.107,497.070,30.762,6.348,364.746,122.559
1706145153.111,-873.535,41.504,13.672,585.449,828.613
1706145153.114,-129.883,43.457,28.809,-228.027,63.477
1706145153.118,-1000.000,30.762,25.391,-628.906,-633.789
1706145153.122,83.008,23.438,7.324,129.395,-147.949
1706145153.126,-785.156,33.691,6.836,701.172,815.918
1706145153.130,221.191,50.781,31.250,11.230,363.281
1706145153.131,-1000.000,41.504,37.109,-679.199,-608.887
1706145153.135,-269.531,26.367,12.207,-97.656,-424.316
1706145153.139,-885.742,32.227,4.395,674.805,635.742
1706145153.143,514.160,46.387,24.902,229.980,541.992
1706145153.147,-991.211,45.410,36.133,-590.820,-452.637
1706145153.151,-619.629,29.785,17.578,-315.918,-606.445
1706145153.155,808.594,27.832,8.789,520.508,311.035
1706145153.158,912.109,40.039,21.973,443.848,739.746
1706145153.162,-531.738,39.551,34.668,-405.762,-182.129
1706145153.166,-934.570,23.926,23.438,-511.719,-765.625
1706145153.170,384.766,26.367,10.254,317.383,-9.277
1706145153.174,-830.566,36.621,13.672,626.953,865.234
1706145153.191,-20.020,38.574,32.227,-163.574,132.324
1706145153.195,-1000.000,27.832,33.691,-643.555,-686.523
1706145153.199,-6.836,22.461,16.113,82.031,-230.469
1706145153.203,-795.898,30.273,12.207,710.449,807.617
1706145153.207,287.598,39.062,31.738,62.988,418.457
1706145153.211,-1000.000,31.250,40.039,-659.180,-578.613
1706145153.215,-369.629,18.555,19.043,-136.719,-458.008
1706145153.218,-951.660,30.273,12.695,645.508,574.707
1706145153.222,617.188,46.387,29.297,268.555,608.398
1706145153.226,-894.043,36.133,35.156,-563.477,-455.566
1706145153.230,-711.426,22.949,18.066,-355.469,-727.051
1706145153.234,700.195,27.832,7.324,497.070,296.875
1706145153.236,993.164,34.668,21.484,504.395,831.055
1706145153.240,-396.484,32.227,42.969,-351.562,-108.398
1706145153.244,-991.699,17.090,33.203,-560.547,-705.078
1706145153.248,270.020,13.184,16.602,247.070,-44.434
1706145153.252,-804.199,23.926,20.508,656.738,881.348
1706145153.256,73.730,36.133,38.574,-100.098,261.230
1706145153.260,-1000.000,26.855,41.016,-660.156,-638.672
1706145153.263,-94.727,15.137,22.461,26.367,-304.199
1706145153.267,-812.500,22.949,15.625,707.520,760.254
1706145153.271,360.352,36.133,30.762,112.793,465.332
1706145153.275,-1000.000,31.738,37.598,-653.809,-505.371
1706145153.279,-454.102,20.508,20.996,-197.754,-511.230
1706145153.281,980.957,27.832,15.137,620.605,459.961
1706145153.285,716.309,41.504,31.250,345.215,625.977
1706145153.289,-787.598,37.598,43.945,-511.230,-355.957
1706145153.293,-792.969,23.438,27.832,-418.945,-709.961
1706145153.297,593.750,24.902,12.695,441.895,183.594
1706145153.301,-929.199,37.598,23.438,563.477,858.398
1706145153.305,-252.441,40.527,39.551,-284.180,-26.855
1706145153.308,-1000.000,29.785,32.227,-598.633,-743.164
1706145153.312,183.105,26.855,17.090,196.777,-149.414
1706145153.316,-787.598,36.133,16.113,684.082,840.820
1706145153.320,156.250,45.410,34.180,-55.664,299.805
1706145153.324,-1000.000,34.668,38.574,-662.109,-669.434
1706145153.327,-189.941,24.902,19.531,-27.832,-372.559
1706145153.331,-847.168,33.691,11.230,685.547,727.051
1706145153.335,441.406,46.387,28.320,173.828,533.691
1706145153.339,-1000.000,40.039,37.109,-615.234,-495.117
1706145153.343,-531.250,22.949,20.020,-242.676,-601.562
1706145153.347,887.207,26.855,10.742,580.566,434.082
1706145153.351,822.754,40.527,21.973,394.531,768.066
1706145153.354,-655.273,41.992,34.180,-457.520,-241.211
1706145153.358,-869.629,26.855,22.461,-474.609,-707.031
1706145153.362,490.234,27.344,9.766,368.652,89.844
1706145153.366,-867.188,39.062,18.066,598.633,884.277
1706145153.370,-116.211,41.504,35.156,-225.586,91.309
1706145153.387,-1000.000,30.762,29.785,-625.977,-739.258
1706145153.391,77.148,24.902,15.625,137.695,-207.031
1706145153.395,-786.621,32.715,14.648,703.613,852.051
1706145153.399,219.238,42.480,33.691,14.648,396.973
1706145153.403,-1000.000,34.180,43.945,-663.574,-638.672
1706145153.407,-270.508,21.973,22.949,-87.891,-460.449
1706145153.411,-899.902,22.461,7.812,663.574,647.949
1706145153.414,526.367,35.645,24.414,221.191,571.777
1706145153.418,-979.980,37.598,36.621,-598.145,-479.004
1706145153.422,-625.488,23.438,19.043,-314.453,-701.172
1706145153.426,798.340,27.832,6.348,541.992,314.941
1706145153.430,918.945,41.504,14.648,454.102,793.457
1706145153.433,-14.160,38.574,34.668,-142.578,191.895
1706145153.437,-1000.000,26.855,30.273,-637.695,-685.547
1706145153.441,-10.742,21.484,9.277,64.453,-253.906
1706145153.444,-794.434,30.762,7.324,686.523,826.660
1706145153.448,289.551,41.992,27.832,53.223,439.453
1706145153.452,-1000.000,34.668,35.645,-662.598,-623.535
1706145153.456,-348.633,20.508,19.531,-124.512,-515.625
1706145153.460,-945.801,29.297,12.695,658.691,567.383
1706145153.461,619.629,45.898,24.902,264.648,632.324
1706145153.465,-885.254,46.875,36.621,-568.848,-370.605
1706145153.469,-711.426,34.668,21.973,-368.164,-675.293
1706145153.473,691.895,28.320,8.789,481.445,257.324
1706145153.477,999.512,36.133,18.555,497.559,825.195
1706145153.481,-380.371,37.109,35.156,-352.539,-111.328
1706145153.485,-998.535,21.484,28.809,-562.500,-774.902
1706145153.488,261.230,20.996,11.719,249.512,-65.430
1706145153.492,-800.293,33.203,13.184,661.621,919.434
1706145153.496,81.543,40.039,30.273,-99.121,258.789
1706145153.500,-1000.000,31.738,33.691,-650.879,-714.844
1706145153.504,-105.957,24.902,17.090,30.273,-359.375
1706145153.506,-816.406,31.738,9.277,695.801,781.250
1706145153.510,367.188,42.480,29.297,116.699,479.980
1706145153.514,-1000.000,39.062,41.504,-634.766,-543.457
1706145153.518,-461.914,22.461,20.020,-185.059,-535.645
1706145153.522,961.914,24.414,7.812,620.117,501.953
1706145153.526,735.840,40.039,23.438,326.172,660.645
1706145153.530,-760.254,39.551,36.621,-521.484,-322.266
1706145153.533,-800.781,23.438,22.461,-428.223,-694.824
1706145153.537,581.055,26.855,15.137,417.969,134.277
1706145153.541,-923.828,41.504,25.391,555.664,827.637
1706145153.545,-238.770,41.016,37.598,-274.902,-44.922
1706145153.549,-1000.000,27.832,27.832,-597.168,-780.273
1706145153.552,172.363,21.484,14.648,187.012,-130.859
1706145153.556,-787.109,30.273,16.113,685.547,882.812
1706145153.560,156.738,39.551,33.203,-37.598,278.320
1706145153.564,-1000.000,32.227,37.109,-652.344,-714.355
1706145153.568,-187.012,27.344,19.531,-25.391,-375.977
1706145153.572,-849.609,32.227,11.719,673.828,709.961
1706145153.576,444.824,41.992,28.320,153.809,500.488
1706145153.579,-1000.000,36.621,39.062,-631.348,-515.625
1706145153.583,-553.711,21.973,18.066,-255.371,-610.840
1706145153.587,875.977,26.855,10.742,576.172,380.371
1706145153.591,833.496,41.016,28.809,399.414,707.520
1706145153.595,-640.625,39.062,41.992,-454.590,-211.426
1706145153.626,-879.883,22.949,25.879,-474.121,-693.359
1706145153.630,470.215,23.438,15.137,365.723,91.797
1706145153.634,-867.188,35.156,23.438,588.379,884.277
1706145153.638,-110.840,38.086,37.598,-222.656,87.891
1706145153.642,-1000.000,29.297,37.598,-610.352,-753.418
1706145153.646,60.059,25.391,22.949,145.996,-218.750
1706145153.650,-787.109,29.297,16.602,691.406,860.840
1706145153.653,227.051,39.551,32.227,-7.324,355.957
1706145153.657,-1000.000,36.133,39.062,-676.270,-684.082
1706145153.661,-293.457,26.367,17.090,-94.238,-481.445
1706145153.665,-909.180,34.180,6.836,659.180,648.438
1706145153.669,531.738,44.922,23.926,210.938,614.746
1706145153.656,-976.074,40.039,35.156,-599.121,-426.758
1706145153.660,-633.301,29.785,19.043,-318.359,-671.875
1706145153.664,788.086,33.203,11.230,517.578,325.684
1706145153.668,931.152,44.922,25.391,458.984,795.410
1706145153.672,-500.488,44.434,38.574,-397.461,-184.082
1706145153.676,-940.430,26.855,29.785,-522.461,-719.727
1706145153.680,373.535,25.391,14.648,305.664,29.785
1706145153.683,-823.242,41.016,24.414,641.113,861.816
1706145153.687,-2.930,48.828,41.504,-141.113,108.398
1706145153.691,-1000.000,33.691,29.785,-646.973,-774.902
1706145153.695,-20.020,21.973,13.672,64.941,-286.621
1706145153.699,-799.805,31.738,13.184,694.824,811.035
1706145153.716,297.363,46.387,29.297,54.199,440.430
1706145153.720,-1000.000,38.574,33.691,-665.527,-587.402
1706145153.724,-368.652,24.902,17.578,-147.949,-529.297
1706145153.728,-951.660,31.738,10.742,636.230,561.523
1706145153.732,629.395,44.922,28.320,273.438,649.902
1706145153.736,-882.324,40.527,39.551,-553.711,-404.785
1706145153.740,-710.449,24.414,20.508,-361.328,-776.367
1706145153.743,694.824,25.879,9.766,483.398,202.148
1706145153.747,-988.770,36.621,20.996,503.906,824.707
1706145153.751,-361.328,40.039,36.621,-351.074,-122.070
1706145153.755,-995.117,29.297,28.320,-569.824,-789.551
1706145153.759,263.184,27.344,10.254,241.699,-115.723
1706145153.747,-799.805,40.527,12.207,653.320,872.559
1706145153.751,83.496,43.457,28.320,-113.770,255.371
1706145153.755,-1000.000,29.297,25.391,-679.688,-726.074
1706145153.759,-107.910,24.902,5.859,10.742,-325.195
1706145153.763,-818.848,32.715,0.000,691.406,791.504
1706145153.767,375.000,43.457,20.996,114.258,479.980
1706145153.771,-1000.000,39.062,33.691,-633.789,-546.875
1706145153.774,-468.750,24.414,16.113,-206.543,-587.402
1706145153.778,957.520,27.344,6.836,591.797,467.285
1706145153.782,739.258,43.945,24.902,328.613,704.102
1706145153.786,-757.812,41.992,40.527,-505.371,-296.875
1706145153.790,-803.711,26.855,26.367,-420.410,-723.633
1706145153.792,576.660,28.320,14.160,417.969,140.137
1706145153.796,-918.457,38.574,20.020,562.988,877.930
1706145153.800,-229.004,47.363,40.527,-264.160,17.090
1706145153.804,-1000.000,38.574,39.062,-594.727,-766.113
1706145153.808,176.758,29.297,15.625,178.223,-159.180
1706145153.812,-785.645,37.598,11.719,669.922,883.301
1706145153.816,163.086,45.898,31.250,-47.363,292.480
1706145153.819,-1000.000,35.645,36.133,-661.133,-699.707
1706145153.823,-198.730,27.344,14.648,-39.062,-365.234
1706145153.827,-854.004,34.668,9.277,676.758,756.836
1706145153.831,452.637,44.434,30.762,169.434,571.777
1706145153.835,-1000.000,40.039,38.574,-614.746,-480.957
1706145153.836,-554.688,23.926,24.414,-253.906,-566.406
1706145153.840,877.441,27.832,18.066,575.684,450.195
1706145153.844,841.797,42.969,29.297,408.691,767.578
1706145153.848,-628.906,39.062,40.527,-447.754,-246.582
1706145153.852,-878.418,20.020,27.832,-478.027,-775.391
1706145153.856,470.215,23.926,13.184,352.539,54.688
1706145153.860,-860.352,39.062,18.066,596.680,828.125
1706145153.863,-100.586,41.992,33.203,-204.102,15.625
1706145153.867,-1000.000,29.785,28.809,-612.793,-730.957
1706145153.871,74.707,23.438,13.184,128.906,-203.125
1706145153.875,-787.109,32.227,10.742,683.594,843.262
1706145153.879,230.957,42.480,26.855,2.441,398.438
1706145153.881,-1000.000,37.109,32.227,-665.039,-622.070
1706145153.885,-291.016,21.973,17.578,-90.332,-425.781
1706145153.889,-908.203,29.297,13.672,672.852,681.152
1706145153.893,544.434,46.875,32.715,243.164,597.656
1706145153.897,-958.496,38.574,39.551,-574.219,-479.980
1706145153.901,-633.789,21.973,18.066,-310.547,-724.121
1706145153.905,780.762,23.926,6.348,518.555,279.785
1706145153.908,933.105,37.598,19.043,454.102,777.344
1706145153.912,-497.070,40.527,35.645,-386.230,-176.758
1706145153.916,-936.523,25.391,26.855,-514.160,-750.000
1706145153.920,371.094,23.926,13.672,301.270,8.789
1706145153.924,-821.777,36.621,18.066,631.348,898.926
1706145153.941,6.836,41.992,33.203,-148.438,223.633
1706145153.945,-1000.000,32.715,32.227,-630.859,-708.984
1706145153.949,-14.160,24.414,15.625,79.102,-336.426
1706145153.953,-795.410,29.785,10.742,688.965,810.059
1706145153.957,298.828,39.551,28.809,55.664,446.289
1706145153.961,-1000.000,32.227,39.551,-655.762,-574.219
1706145153.965,-374.512,18.555,21.973,-145.508,-492.188
1706145153.968,-966.309,23.438,13.672,638.672,559.082
1706145153.972,638.672,38.574,29.297,282.227,655.273
1706145153.976,-868.164,37.109,41.504,-554.688,-355.957
1706145153.980,-732.422,18.555,24.902,-389.648,-691.895
1706145153.984,675.293,20.996,12.695,460.449,232.422
1706145153.986,-992.188,36.133,25.391,510.254,820.801
1706145153.990,-372.070,35.645,41.016,-342.773,-103.516
1706145153.994,-998.535,24.902,32.227,-575.684,-749.512
1706145153.998,254.883,25.879,18.555,235.352,-76.660
1706145154.002,-798.828,31.250,21.973,664.551,888.184
1706145154.006,92.285,36.621,38.574,-96.680,214.844
1706145154.010,-1000.000,28.320,38.574,-662.598,-720.215
1706145154.013,-116.211,17.090,21.973,11.719,-296.387
1706145154.017,-821.777,25.391,18.555,681.152,743.164
1706145154.021,373.535,38.574,33.691,108.398,420.410
1706145154.025,-1000.000,30.273,39.551,-631.348,-612.793
1706145154.029,-462.891,15.137,22.461,-198.242,-579.590
1706145154.032,945.801,20.020,15.137,583.496,492.188
1706145154.036,745.117,33.203,28.320,322.266,682.129
1706145154.040,-747.559,34.180,39.062,-510.254,-344.238
1706145154.044,-813.477,19.043,26.367,-430.176,-770.020
1706145154.048,566.406,20.508,13.184,413.574,111.816
1706145154.052,-917.480,36.621,19.043,554.688,846.191
1706145154.056,-226.562,41.504,36.621,-264.648,-21.484
1706145154.059,-1000.000,28.320,34.668,-601.074,-690.918
1706145154.063,158.691,24.414,17.578,162.598,-91.309
1706145154.067,-788.574,32.715,15.137,664.062,855.469
1706145154.071,169.922,40.039,33.691,-40.039,312.500
1706145154.075,-1000.000,31.738,38.574,-657.227,-683.594
1706145154.076,-199.219,20.508,16.602,-46.387,-404.785
1706145154.080,-863.281,25.879,8.789,681.152,698.730
1706145154.084,457.031,39.062,27.832,179.199,598.145
1706145154.088,-1000.000,36.621,38.086,-616.211,-444.824
1706145154.092,-564.941,22.949,20.996,-261.719,-627.930
1706145154.096,862.305,25.391,9.766,562.012,397.949
1706145154.100,850.098,41.016,20.996,414.551,762.207
1706145154.103,-620.117,39.551,37.598,-433.594,-224.609
1706145154.107,-883.301,22.461,28.320,-486.816,-750.000
1706145154.111,463.867,22.461,14.160,345.215,52.734
1706145154.115,-860.352,34.180,15.625,599.121,889.160
1706145154.119,-96.680,40.527,29.785,-201.172,88.867
1706145154.137,-1000.000,30.762,30.762,-627.441,-698.242
1706145154.141,58.105,26.855,14.160,113.281,-125.000
1706145154.145,-792.480,32.227,9.277,685.547,862.793
1706145154.149,240.234,39.062,28.809,9.277,377.930
1706145154.153,-1000.000,33.203,34.180,-661.621,-633.301
1706145154.157,-300.781,24.902,17.578,-92.285,-501.953
1706145154.161,-909.668,30.762,9.277,662.109,571.777
1706145154.164,546.387,38.574,20.508,228.027,574.219
1706145154.168,-958.008,35.645,30.273,-592.285,-421.875
1706145154.172,-650.391,20.996,12.695,-334.473,-668.945
1706145154.176,763.184,23.438,4.395,507.812,309.082
1706145154.180,943.848,37.598,15.625,464.844,808.105
1706145154.166,-477.051,38.086,29.297,-381.348,-177.734
1706145154.170,-954.590,24.414,20.020,-524.414,-779.297
1706145154.174,347.168,23.438,5.371,290.527,-22.461
1706145154.178,-818.359,34.668,10.742,625.000,887.695
1706145154.182,10.742,40.527,28.320,-149.414,149.414
1706145154.186,-1000.000,30.273,29.785,-637.695,-756.836
1706145154.190,-21.484,23.926,11.230,66.895,-297.852
1706145154.193,-798.340,33.691,6.836,684.082,800.293
1706145154.197,306.152,41.016,25.879,63.965,440.430
1706145154.201,-1000.000,32.715,32.715,-644.043,-579.590
1706145154.205,-403.320,21.484,16.602,-141.113,-481.934
1706145154.209,-989.746,28.809,9.766,637.695,541.992
1706145154.212,647.461,44.922,23.926,288.574,583.008
1706145154.216,-864.258,44.434,35.645,-540.527,-422.363
1706145154.220,-719.238,29.297,18.066,-368.652,-724.121
1706145154.224,683.594,30.762,4.883,477.051,197.754
1706145154.228,-981.934,39.062,18.066,510.254,816.895
1706145154.232,-347.656,33.691,34.668,-340.820,-121.094
1706145154.236,-1000.000,20.020,26.855,-572.754,-801.270
1706145154.239,243.652,18.555,10.742,232.422,-99.121
1706145154.243,-798.340,30.273,10.254,654.785,883.789
1706145154.247,98.633,39.551,29.785,-89.844,232.422
1706145154.251,-1000.000,29.785,33.691,-653.809,-698.242
1706145154.255,-127.930,20.020,13.184,-6.836,-345.703
1706145154.257,-826.660,32.715,7.324,669.434,748.535
1706145154.261,385.742,48.340,24.902,122.559,487.305
1706145154.265,-1000.000,38.086,31.738,-622.559,-561.523
1706145154.269,-480.957,20.996,15.625,-207.520,-574.707
1706145154.273,947.266,29.297,9.277,591.309,491.211
1706145154.277,751.465,43.945,24.902,345.215,695.801
1706145154.281,-747.070,47.852,38.086,-491.699,-310.059
1706145154.284,-804.688,31.738,20.508,-429.199,-751.465
1706145154.288,575.195,25.879,5.859,406.250,85.938
1706145154.292,-911.133,39.062,15.137,554.199,888.184
1706145154.296,-208.496,41.016,31.250,-264.648,1.465
1706145154.300,-1000.000,26.855,24.414,-592.285,-778.320
1706145154.316,145.996,23.438,10.254,173.340,-124.512
1706145154.320,-788.086,30.762,10.742,682.129,869.141
1706145154.324,170.410,36.621,29.297,-33.691,348.145
1706145154.328,-1000.000,28.809,32.715,-666.504,-648.926
1706145154.332,-199.707,20.020,13.184,-42.969,-450.684
1706145154.336,-862.305,27.344,8.789,679.688,693.359
1706145154.340,467.285,39.551,23.438,170.898,574.219
1706145154.343,-1000.000,34.668,29.297,-619.141,-489.258
1706145154.347,-565.430,22.949,15.625,-270.996,-638.184
1706145154.351,862.305,26.367,12.695,550.781,414.551
1706145154.355,855.957,41.504,25.879,412.109,754.395
1706145154.359,-609.863,40.039,36.133,-432.617,-280.762
1706145154.361,-894.531,21.973,25.879,-484.863,-749.023
1706145154.365,449.219,21.973,18.555,344.727,83.984
1706145154.369,-855.957,32.715,21.973,598.633,883.789
1706145154.373,-86.914,35.645,34.180,-211.426,141.602
1706145154.377,-1000.000,23.926,32.715,-630.859,-660.645
1706145154.381,46.875,19.531,18.066,126.465,-177.246
1706145154.385,-791.016,28.809,11.230,695.801,855.957
1706145154.388,241.699,37.598,29.297,20.020,405.762
1706145154.392,-1000.000,31.250,38.086,-655.273,-620.117
1706145154.396,-312.988,20.996,20.508,-107.910,-497.559
1706145154.400,-921.875,21.973,10.742,645.508,618.652
1706145154.404,559.082,33.691,24.414,228.516,621.094
1706145154.407,-949.707,33.691,35.156,-583.984,-467.773
1706145154.411,-649.414,20.996,15.137,-323.242,-707.031
1706145154.415,769.531,21.973,0.000,507.812,304.199
1706145154.419,945.312,34.180,18.066,447.754,797.363
1706145154.423,-475.098,39.551,38.086,-397.461,-201.660
1706145154.427,-951.172,21.973,28.320,-528.809,-817.871
1706145154.431,350.098,19.531,11.230,291.016,-32.227
1706145154.434,-817.871,37.109,12.695,644.531,903.320
1706145154.438,16.602,43.457,30.762,-130.371,167.969
1706145154.442,-1000.000,30.762,28.320,-637.207,-736.816
1706145154.446,-30.762,21.484,10.742,65.918,-255.371
1706145154.450,-799.316,29.785,8.789,683.594,822.266
1706145154.451,315.430,41.504,30.762,69.824,434.570
1706145154.455,-1000.000,35.156,39.062,-645.508,-615.234
1706145154.459,-393.066,23.926,19.531,-150.879,-523.438
1706145154.463,-976.074,32.227,13.184,635.254,557.129
1706145154.467,656.738,42.969,25.879,297.363,658.691
1706145154.471,-849.121,39.551,32.715,-541.504,-325.195
1706145154.475,-739.258,23.926,16.602,-396.484,-728.516
1706145154.478,657.715,24.414,8.301,455.078,183.594
1706145154.482,-968.750,38.086,20.508,515.137,795.410
1706145154.486,-324.219,39.551,34.180,-333.008,-109.375
1706145154.490,-1000.000,27.832,27.832,-567.871,-747.559
1706145154.494,240.723,28.320,14.160,233.398,-98.145
1706145154.497,-796.875,36.133,14.160,656.250,879.883
1706145154.501,103.516,41.016,31.250,-88.379,257.324
1706145154.505,-1000.000,34.668,31.738,-645.020,-693.359
1706145154.509,-132.324,27.832,12.207,19.531,-334.473
1706145154.513,-830.566,33.203,6.348,685.547,766.113
1706145154.517,386.719,46.387,25.391,114.746,489.258
1706145154.521,-1000.000,38.574,34.668,-637.695,-589.355
1706145154.524,-463.867,24.414,16.602,-212.402,-603.027
1706145154.528,948.730,28.809,8.789,600.098,476.074
1706145154.532,758.301,41.016,22.949,358.887,711.426
1706145154.536,-730.469,39.062,34.668,-486.816,-336.426
1706145154.540,-824.707,24.414,20.996,-429.688,-758.789
1706145154.541,546.387,22.949,10.742,399.902,151.367
1706145154.545,-905.762,31.250,18.066,557.617,891.602
1706145154.549,-196.777,36.133,33.691,-253.418,-5.859
1706145154.553,-1000.000,26.855,25.879,-596.680,-760.742
1706145154.557,135.254,26.855,6.836,168.945,-117.676
1706145154.561,-788.574,39.551,6.348,682.129,894.531
1706145154.565,180.664,43.945,26.367,-39.062,339.844
1706145154.568,-1000.000,30.762,32.227,-680.664,-701.660
1706145154.572,-237.793,20.020,12.695,-65.430,-435.547
1706145154.576,-874.023,25.879,6.348,668.457,704.590
1706145154.580,470.215,37.598,26.367,188.965,589.844
1706145154.584,-1000.000,35.156,35.156,-605.469,-448.242
1706145154.587,-581.543,21.973,19.043,-266.113,-620.605
1706145154.591,845.703,23.438,8.301,553.711,397.949
1706145154.595,854.004,36.621,20.996,395.508,724.609
1706145154.599,-614.746,36.621,33.691,-450.684,-298.340
1706145154.603,-895.020,21.484,20.508,-500.488,-762.207
1706145154.607,442.871,21.973,9.277,337.402,67.871
1706145154.611,-854.004,34.668,14.648,602.051,871.582
1706145154.614,-78.613,38.574,30.762,-199.707,57.617
1706145154.618,-1000.000,24.902,29.785,-629.883,-769.531
1706145154.622,42.969,20.020,14.648,115.234,-226.562
1706145154.626,-792.480,31.738,11.230,684.082,832.520
1706145154.630,247.070,39.551,27.832,8.789,371.094
1706145154.631,-1000.000,29.785,34.668,-664.062,-649.414
1706145154.635,-314.453,22.949,13.672,-108.398,-473.145
1706145154.639,-935.059,28.809,6.348,647.949,623.535
1706145154.643,567.383,40.039,25.879,238.281,614.258
1706145154.647,-938.477,37.598,34.668,-575.195,-445.801
1706145154.651,-664.551,21.973,17.578,-336.914,-716.797
1706145154.655,749.023,25.391,8.789,505.371,263.184
1706145154.658,958.984,38.086,21.484,469.727,802.734
1706145154.662,-456.543,39.551,36.621,-389.648,-189.453
1706145154.666,-957.520,28.809,25.391,-535.156,-788.574
1706145154.670,342.773,28.320,18.066,291.504,-15.137
1706145154.674,-815.430,37.598,25.879,629.395,909.668
1706145154.691,22.461,41.992,35.645,-149.414,212.402
1706145154.695,-1000.000,31.250,33.691,-643.555,-684.570
1706145154.699,-46.387,22.949,19.043,62.012,-241.699
1706145154.703,-802.734,32.227,15.137,688.965,793.945
1706145154.707,317.871,44.434,31.250,76.660,407.227
1706145154.711,-1000.000,38.086,37.109,-643.066,-634.277
1706145154.715,-387.207,26.367,20.996,-164.551,-578.125
1706145154.718,-983.887,33.203,12.207,615.723,534.180
1706145154.722,660.156,43.945,28.809,297.363,668.457
1706145154.726,-845.703,40.039,43.457,-534.668,-392.090
1706145154.730,-732.910,29.297,27.832,-396.973,-727.539
1706145154.734,664.062,29.785,16.113,448.242,215.820
1706145154.736,-967.285,38.574,25.391,524.902,820.312
1706145154.740,-321.289,41.016,38.086,-309.570,-57.617
1706145154.744,-1000.000,24.902,27.832,-562.500,-713.867
1706145154.748,241.211,21.973,13.672,229.004,-74.707
1706145154.752,-794.434,36.133,19.043,658.203,903.809
1706145154.756,104.492,42.969,36.621,-81.055,253.418
1706145154.760,-1000.000,31.738,37.598,-646.973,-755.859
1706145154.763,-124.023,26.855,21.484,16.113,-357.422
1706145154.767,-826.660,35.645,16.602,690.430,761.230
1706145154.771,396.973,45.898,33.203,118.652,470.215
1706145154.775,-1000.000,37.598,40.039,-633.301,-568.359
1706145154.779,-490.234,24.414,20.508,-209.961,-602.539
1706145154.781,935.059,29.785,12.207,590.332,454.102
1706145154.785,766.602,43.457,25.879,347.656,688.965
1706145154.789,-725.098,42.969,35.156,-497.070,-309.082
1706145154.793,-823.730,25.879,20.996,-440.918,-757.812
1706145154.797,550.293,26.367,7.324,399.414,90.820
1706145154.801,-900.879,37.598,13.672,568.359,832.031
1706145154.805,-188.965,38.086,34.668,-245.117,2.930
1706145154.808,-1000.000,26.367,32.715,-594.727,-738.281
1706145154.812,131.348,21.484,16.113,163.086,-186.035
1706145154.816,-789.551,30.273,13.672,673.340,831.055
1706145154.820,184.082,40.039,30.762,-30.273,328.125
1706145154.824,-1000.000,31.250,36.133,-655.273,-640.137
1706145154.826,-222.168,21.973,18.555,-45.410,-367.188
1706145154.830,-876.953,29.785,12.207,685.059,700.195
1706145154.834,481.934,41.504,28.320,200.684,551.270
1706145154.838,-1000.000,38.574,35.645,-601.074,-467.285
1706145154.842,-585.938,24.414,20.508,-277.344,-638.672
1706145154.846,839.844,27.344,11.719,542.480,355.957
1706145154.850,870.117,42.480,23.438,409.668,713.379
1706145154.853,-590.820,40.527,37.109,-430.664,-260.742
1706145154.857,-901.855,24.414,24.902,-490.234,-737.793
1706145154.861,433.105,23.926,9.277,335.938,34.668
1706145154.865,-849.121,35.156,13.184,605.957,882.324
1706145154.869,-68.359,39.551,31.250,-184.570,61.035
1706145154.871,-1000.000,29.297,28.320,-618.164,-763.184
1706145154.875,41.992,22.461,11.230,105.469,-205.078
1706145154.879,-792.969,31.250,10.254,683.105,822.754
1706145154.883,255.859,41.992,27.832,27.832,407.227
1706145154.887,-1000.000,32.715,30.762,-658.203,-604.492
1706145154.891,-324.219,21.484,13.184,-113.281,-493.164
1706145154.895,-929.688,26.855,9.277,652.344,598.633
1706145154.898,568.359,38.574,27.344,239.746,612.793
1706145154.902,-938.965,35.645,39.062,-579.590,-407.715
1706145154.906,-670.410,22.461,22.461,-333.008,-674.316
1706145154.910,743.164,25.391,12.695,503.906,275.879
1706145154.914,961.426,39.551,23.926,472.168,785.156
1706145154.916,-450.684,41.992,37.109,-367.188,-146.973
1706145154.920,-956.543,27.344,27.832,-529.297,-715.820
1706145154.924,334.473,27.832,16.113,275.879,13.184
1706145154.928,-815.918,36.133,20.020,637.207,901.855
1706145154.932,30.273,38.086,34.668,-141.113,142.578
1706145154.936,-1000.000,28.809,33.203,-662.109,-717.773
1706145154.940,-65.430,22.949,17.090,41.992,-276.855
1706145154.943,-811.523,32.227,11.230,683.594,780.273
1706145154.947,323.242,44.434,30.273,75.195,438.965
1706145154.951,-1000.000,39.062,41.504,-639.160,-632.812
1706145154.955,-405.762,23.438,23.926,-157.227,-575.684
1706145154.959,-991.699,29.297,18.555,624.512,525.879
1706145154.962,668.457,42.480,34.180,302.246,646.484
1706145154.966,-835.938,36.621,42.480,-534.668,-348.633
1706145154.970,-752.441,24.414,22.949,-386.719,-664.062
1706145154.974,642.090,23.438,10.254,454.102,208.984
1706145154.978,-964.355,37.598,20.020,514.648,837.402
1706145154.982,-315.918,44.434,34.668,-312.988,-87.402
1706145154.986,-1000.000,30.762,26.855,-572.754,-744.629
1706145154.989,223.145,28.320,10.742,212.402,-86.914
1706145154.993,-795.898,37.109,11.719,656.738,875.000
1706145154.997,112.305,43.945,27.832,-87.891,301.758
1706145155.001,-1000.000,35.156,29.297,-662.598,-687.500
1706145155.005,-150.391,24.902,13.672,-1.953,-382.812
1706145155.006,-836.914,32.227,9.766,687.012,718.262
1706145155.010,405.273,44.922,27.344,129.395,474.121
1706145155.014,-1000.000,41.016,36.133,-632.812,-533.203
1706145155.018,-495.605,29.297,20.020,-215.332,-570.312
1706145155.022,927.734,32.227,9.766,593.750,454.102
1706145155.026,770.020,48.340,23.438,358.398,685.059
1706145155.030,-720.215,45.410,38.574,-489.258,-305.664
1706145155.033,-828.125,30.273,24.902,-442.383,-742.676
1706145155.037,541.504,30.273,12.695,406.738,81.055
1706145155.041,-897.949,38.574,21.973,582.031,814.453
1706145155.045,-181.641,41.504,37.109,-243.164,-83.008
1706145155.049,-1000.000,28.809,27.832,-611.328,-826.172
1706145155.052,136.719,22.461,12.207,142.578,-154.785
1706145155.056,-786.133,30.762,11.719,668.457,835.938
1706145155.060,186.035,38.574,25.391,-29.297,317.871
1706145155.064,-1000.000,32.715,30.273,-664.062,-641.602
1706145155.068,-234.863,22.949,13.184,-66.895,-396.973
1706145155.072,-880.371,27.832,3.906,670.898,671.387
1706145155.076,492.188,42.480,21.484,201.660,571.289
1706145155.079,-1000.000,39.551,34.668,-598.633,-458.496
1706145155.083,-581.055,24.414,17.578,-264.648,-666.504
1706145155.087,842.773,28.320,9.277,556.152,314.941
1706145155.091,875.488,39.551,25.391,418.457,702.148
1706145155.095,-584.961,37.598,38.574,-417.480,-226.074
1706145155.111,-895.508,24.902,27.832,-479.492,-726.074
1706145155.115,444.336,25.879,14.648,355.957,53.223
1706145155.119,-847.168,37.598,24.902,626.953,869.629
1706145155.123,-64.941,41.016,40.527,-184.570,102.051
1706145155.127,-1000.000,27.832,30.273,-625.488,-714.844
1706145155.131,40.039,20.996,12.207,103.027,-199.219
1706145155.135,-793.945,30.762,10.254,685.547,826.660
1706145155.138,258.789,39.551,26.367,31.738,413.574
1706145155.142,-1000.000,27.832,32.715,-651.367,-581.543
1706145155.146,-324.219,18.555,15.137,-103.516,-481.445
1706145155.150,-929.199,24.902,9.277,659.668,591.309
1706145155.154,579.590,37.598,27.344,249.512,632.324
1706145155.157,-927.246,36.133,39.062,-574.707,-390.137
1706145155.161,-672.363,19.531,25.391,-339.355,-691.895
1706145155.165,741.699,18.066,15.137,503.906,280.273
1706145155.169,966.309,30.273,22.461,484.863,800.293
1706145155.173,-439.941,31.738,35.156,-365.723,-103.027
1706145155.177,-964.844,19.043,27.832,-537.109,-725.098
1706145155.181,321.289,20.996,11.230,270.996,-28.320
1706145155.184,-813.965,32.227,11.230,629.883,882.812
1706145155.188,35.645,38.086,28.809,-142.578,158.691
1706145155.192,-1000.000,28.320,29.785,-655.273,-698.730
1706145155.196,-68.848,19.531,14.160,44.434,-263.672
1706145155.200,-813.477,27.832,10.254,679.199,779.297
1706145155.201,333.008,39.062,27.832,73.242,437.500
1706145155.205,-1000.000,30.762,38.574,-647.461,-599.609
1706145155.209,-416.016,16.602,22.461,-157.715,-547.852
1706145155.213,-997.070,20.508,12.695,628.418,516.602
1706145155.217,677.246,36.621,28.320,296.875,674.316
1706145155.221,-826.172,34.668,40.039,-529.297,-331.543
1706145155.225,-763.184,18.555,25.391,-394.043,-715.332
1706145155.228,629.883,21.973,14.648,450.195,174.316
1706145155.232,-958.984,31.250,22.461,531.250,802.246
1706145155.236,-307.129,32.715,38.086,-310.059,-44.434
1706145155.240,-1000.000,23.926,33.691,-580.078,-718.750
1706145155.244,218.750,22.949,17.578,200.684,-113.770
1706145155.277,-794.434,36.133,18.555,650.391,857.910
1706145155.281,117.188,41.992,36.621,-83.008,254.395
1706145155.285,-1000.000,31.250,36.133,-654.297,-682.129
1706145155.289,-150.391,24.902,17.578,1.465,-346.191
1706145155.293,-840.332,30.762,10.742,676.270,725.586
1706145155.297,407.227,38.574,28.320,122.559,479.492
1706145155.301,-1000.000,32.227,35.645,-627.930,-515.625
1706145155.304,-512.695,20.508,17.090,-221.191,-583.496
1706145155.308,916.504,22.461,10.254,573.730,416.992
1706145155.312,771.973,35.156,26.855,351.562,692.871
1706145155.316,-718.750,35.645,41.504,-480.469,-285.645
1706145155.320,-839.355,20.020,27.832,-451.660,-717.773
1706145155.291,525.391,21.484,10.254,377.441,104.980
1706145155.295,-894.043,37.598,15.625,564.453,846.680
1706145155.299,-169.434,42.969,35.156,-245.605,-10.742
1706145155.303,-1000.000,28.320,31.250,-606.934,-755.371
1706145155.307,111.816,23.926,11.719,150.879,-186.523
1706145155.311,-787.109,33.691,11.719,668.457,815.430
1706145155.315,189.453,41.016,30.273,-25.391,343.262
1706145155.318,-1000.000,31.250,34.180,-657.715,-661.133
1706145155.322,-231.934,20.020,15.625,-55.664,-463.379
1706145155.326,-874.512,27.832,9.277,669.922,648.438
1706145155.330,483.398,36.621,32.227,180.176,535.156
1706145155.334,-1000.000,30.762,42.480,-610.840,-484.863
1706145155.336,-593.750,18.066,21.973,-287.109,-609.863
1706145155.340,823.242,20.996,15.137,534.180,351.562
1706145155.344,882.324,36.133,29.785,411.621,714.355
1706145155.348,-571.289,33.691,41.504,-435.547,-244.629
1706145155.352,-913.086,19.043,28.320,-500.000,-736.816
1706145155.356,416.016,21.973,16.602,335.938,54.688
1706145155.360,-846.680,34.668,19.043,600.586,838.867
1706145155.363,-60.059,37.598,31.738,-194.824,78.613
1706145155.367,-1000.000,22.949,30.273,-622.070,-684.570
1706145155.371,29.297,18.066,12.695,103.027,-221.191
1706145155.375,-791.504,27.832,12.695,676.758,795.410
1706145155.379,259.277,36.133,32.227,22.949,386.230
1706145155.381,-1000.000,27.344,35.645,-653.320,-635.742
1706145155.385,-332.031,20.508,18.555,-116.211,-474.609
1706145155.389,-946.777,28.809,11.230,644.043,620.605
1706145155.393,583.496,41.016,27.344,250.977,610.352
1706145155.397,-923.828,39.551,40.039,-561.523,-365.723
1706145155.401,-673.340,27.832,24.902,-331.055,-618.652
1706145155.405,735.840,29.297,14.160,495.605,257.324
1706145155.408,974.609,40.527,23.438,464.355,750.977
1706145155.412,-425.781,42.480,39.062,-375.000,-139.160
1706145155.416,-967.285,30.762,30.762,-529.785,-695.801
1706145155.420,316.895,28.809,14.160,279.785,-16.113
1706145155.424,-812.988,36.621,16.113,629.395,851.562
1706145155.427,41.504,40.527,33.203,-138.184,184.570
1706145155.431,-1000.000,31.738,35.645,-640.625,-665.527
1706145155.435,-72.754,23.926,18.555,54.688,-245.605
1706145155.439,-811.035,29.785,13.672,690.918,777.832
1706145155.443,334.961,40.527,30.762,85.938,446.777
1706145155.447,-1000.000,37.598,37.598,-640.625,-576.660
1706145155.451,-416.992,23.926,18.555,-174.316,-564.941
1706145155.454,996.094,26.367,7.324,606.934,526.855
1706145155.458,683.105,43.945,22.461,311.523,652.344
1706145155.462,-816.406,42.969,37.109,-511.719,-404.785
1706145155.466,-767.578,25.391,24.414,-382.812,-722.168
1706145155.470,621.582,25.391,11.719,451.172,206.543
1706145155.487,-951.660,37.598,21.973,526.855,814.941
1706145155.491,-294.434,39.551,39.062,-310.059,-103.516
1706145155.495,-1000.000,26.367,31.250,-585.938,-769.043
1706145155.499,212.402,25.879,11.719,201.660,-101.074
1706145155.503,-795.410,36.621,11.230,665.039,859.863
1706145155.507,124.512,39.551,28.809,-70.312,272.461
1706145155.511,-1000.000,27.344,30.762,-664.551,-650.879
1706145155.514,-156.250,21.973,17.090,-5.371,-353.516
1706145155.518,-841.309,28.809,13.672,686.523,709.473
1706145155.522,409.180,41.016,30.273,135.742,492.188
1706145155.526,-1000.000,38.086,37.598,-622.070,-486.328
1706145155.530,-502.441,20.996,18.555,-225.098,-579.590
1706145155.531,912.109,24.902,6.348,567.871,395.996
1706145155.535,789.551,40.039,22.949,354.004,691.895
1706145155.539,-693.848,37.598,40.039,-479.004,-262.695
1706145155.543,-841.797,21.973,23.926,-450.684,-724.609
1706145155.547,523.438,20.020,9.766,386.719,81.055
1706145155.551,-889.648,29.785,18.555,571.777,811.035
1706145155.555,-161.621,33.691,34.180,-240.234,-27.832
1706145155.558,-1000.000,24.414,31.250,-591.797,-743.652
1706145155.562,109.863,21.484,18.555,168.945,-200.684
1706145155.566,-787.598,32.227,18.555,677.246,766.113
1706145155.570,196.777,40.527,34.668,-24.414,302.734
1706145155.574,-1000.000,33.203,38.574,-649.902,-627.930
1706145155.576,-241.211,23.926,18.555,-54.688,-372.559
1706145155.580,-880.371,26.855,9.277,660.156,661.621
1706145155.584,495.117,40.039,25.879,180.664,522.949
1706145155.588,-1000.000,40.039,34.668,-603.516,-483.398
1706145155.592,-590.820,26.367,18.066,-272.949,-655.762
1706145155.596,827.637,26.367,10.742,552.246,301.758
1706145155.600,882.324,38.086,25.391,423.340,731.445
1706145155.603,-572.266,38.574,41.504,-422.852,-187.988
1706145155.607,-903.320,24.414,32.227,-499.023,-739.746
1706145155.611,428.223,25.391,19.043,324.219,-4.883
1706145155.615,-841.797,40.527,21.484,609.375,847.168
1706145155.619,-47.363,43.945,38.574,-179.199,134.277
1706145155.621,-1000.000,32.715,40.527,-611.816,-684.082
1706145155.625,29.785,26.855,20.508,112.793,-242.188
1706145155.629,-788.574,33.691,16.113,685.059,783.691
1706145155.633,267.090,42.480,35.645,29.297,416.016
1706145155.637,-1000.000,32.227,41.016,-654.297,-563.477
1706145155.641,-330.566,21.973,19.531,-115.234,-462.402
1706145155.645,-938.477,30.273,9.277,645.996,576.660
1706145155.648,589.355,40.527,29.297,259.766,586.426
1706145155.652,-917.969,34.668,40.039,-545.898,-428.223
1706145155.656,-680.664,21.484,19.043,-330.078,-688.965
1706145155.660,730.957,25.879,9.766,495.117,218.262
1706145155.664,978.027,39.551,21.484,480.957,752.441
1706145155.666,-418.457,38.086,35.645,-368.652,-119.629
1706145155.670,-971.680,25.391,29.785,-537.598,-715.332
1706145155.674,306.152,25.391,12.207,270.996,-40.527
1706145155.678,-811.523,30.273,5.859,632.324,845.215
1706145155.682,47.852,30.273,26.367,-120.605,198.242
1706145155.686,-1000.000,21.973,34.668,-641.602,-643.066
1706145155.690,-84.961,17.578,20.508,43.945,-272.949
1706145155.693,-817.383,26.367,13.184,679.688,705.078
1706145155.697,338.379,35.156,28.809,68.848,401.855
1706145155.701,-1000.000,27.344,35.156,-650.879,-538.086
1706145155.705,-404.297,18.555,14.160,-176.758,-501.953
1706145155.709,-998.535,25.391,7.324,619.141,496.094
1706145155.712,685.059,38.574,24.414,315.430,631.836
1706145155.716,-815.430,35.645,37.598,-528.809,-317.383
1706145155.720,-762.207,21.484,23.438,-405.762,-671.387
1706145155.724,626.465,24.414,9.277,438.965,162.109
1706145155.728,-952.148,37.598,16.113,526.367,812.500
1706145155.732,-290.527,41.504,34.668,-297.363,-43.457
1706145155.736,-1000.000,29.297,30.273,-563.965,-759.277
1706145155.739,209.473,25.879,15.137,215.332,-185.059
1706145155.743,-790.527,37.109,15.625,663.574,819.824
1706145155.747,127.930,41.992,34.180,-69.824,279.297
1706145155.751,-1000.000,30.762,38.574,-660.645,-624.512
1706145155.755,-142.578,23.438,18.066,-23.438,-324.707
1706145155.757,-833.984,32.715,8.301,670.410,707.031
1706145155.761,416.504,43.945,24.902,132.812,496.582
1706145155.765,-1000.000,37.109,33.203,-625.977,-478.027
1706145155.769,-501.465,22.949,12.207,-225.586,-569.824
1706145155.773,915.527,28.320,5.371,586.426,409.668
1706145155.777,789.551,41.504,24.902,382.324,665.039
1706145155.781,-692.871,36.133,37.598,-458.496,-297.852
1706145155.784,-842.285,20.996,25.391,-447.266,-677.734
1706145155.788,518.555,21.484,13.672,372.070,101.074
1706145155.792,-890.137,36.133,20.508,568.359,812.988
1706145155.796,-159.668,38.086,36.133,-235.352,18.555
1706145155.800,-1000.000,22.949,29.785,-608.398,-745.605
1706145155.816,105.957,20.996,13.672,156.250,-185.059
1706145155.820,-789.062,30.273,12.695,679.199,822.754
1706145155.824,199.219,36.133,29.785,-35.645,338.867
1706145155.828,-1000.000,30.273,33.203,-661.621,-609.863
1706145155.832,-243.652,23.926,16.602,-56.641,-419.434
1706145155.836,-887.207,28.809,9.766,661.621,628.418
1706145155.840,499.023,40.039,24.902,189.453,559.570
1706145155.843,-994.629,35.156,36.621,-592.773,-415.527
1706145155.847,-592.773,20.020,16.602,-275.879,-589.355
1706145155.851,820.801,27.832,4.395,548.828,333.496
1706145155.855,890.137,42.480,20.508,438.965,724.609
1706145155.859,-561.035,40.527,38.574,-418.945,-145.508
1706145155.861,-904.785,26.367,26.367,-499.512,-680.664
1706145155.865,423.340,30.273,10.254,332.031,0.977
1706145155.869,-842.285,42.969,16.602,608.398,861.328
1706145155.873,-45.898,45.410,35.156,-177.246,134.766
1706145155.877,-1000.000,34.180,31.738,-620.117,-708.008
1706145155.881,18.066,30.762,14.160,96.680,-229.004
1706145155.885,-798.828,39.551,11.719,679.688,808.594
1706145155.888,271.973,48.828,29.785,34.180,379.883
1706145155.892,-1000.000,38.086,29.785,-645.996,-597.656
1706145155.896,-336.426,22.949,10.254,-122.070,-440.918
1706145155.900,-943.359,28.320,6.348,637.695,572.754
1706145155.904,595.215,42.969,22.949,259.766,565.918
1706145155.906,-910.645,41.016,34.180,-549.805,-408.691
1706145155.910,-686.035,25.879,16.113,-336.914,-656.250
1706145155.914,720.215,29.297,4.883,481.934,262.207
1706145155.918,980.469,42.480,14.160,465.820,762.207
1706145155.922,-413.086,43.945,27.344,-368.164,-136.719
1706145155.926,-974.121,27.832,20.020,-541.504,-723.145
1706145155.930,298.828,24.414,10.254,267.090,-61.035
1706145155.933,-810.059,34.180,15.625,639.648,845.215
1706145155.937,51.270,38.574,30.273,-114.746,148.438
1706145155.941,-1000.000,30.273,29.785,-633.301,-752.441
1706145155.945,-70.801,24.414,12.695,41.992,-287.109
1706145155.949,-811.035,32.227,7.812,675.293,783.691
1706145155.952,343.262,42.480,23.926,79.102,447.754
1706145155.956,-1000.000,37.109,32.715,-638.672,-558.594
1706145155.960,-423.340,25.391,14.160,-171.387,-502.441
1706145155.964,985.840,26.855,4.395,614.258,544.922
1706145155.968,696.777,39.062,22.949,313.965,624.512
1706145155.972,-800.293,39.062,35.156,-511.719,-309.082
1706145155.976,-774.414,21.484,18.555,-390.625,-630.371
1706145155.979,606.445,21.484,11.230,436.035,150.879
1706145155.983,-947.266,34.668,22.949,521.973,776.367
1706145155.987,-279.297,37.109,36.621,-304.199,-15.625
1706145155.991,-1000.000,25.391,29.297,-578.613,-711.914
1706145155.995,206.055,20.020,14.648,205.566,-141.602
1706145155.996,-795.898,27.832,16.602,663.574,840.332
1706145156.000,132.812,34.668,32.715,-65.430,270.020
1706145156.004,-1000.000,26.855,33.203,-648.926,-676.270
1706145156.008,-164.551,18.555,18.066,-11.230,-379.395
1706145156.012,-844.727,27.344,13.672,674.316,683.594
1706145156.016,422.852,43.457,31.738,149.414,493.652
1706145156.020,-1000.000,38.086,42.480,-610.352,-530.762
1706145156.023,-519.531,22.949,21.484,-226.074,-603.516
1706145156.027,899.902,27.832,8.301,578.125,420.898
1706145156.031,796.387,43.945,24.414,364.258,689.453
1706145156.035,-685.547,42.969,40.039,-467.285,-271.973
1706145156.039,-848.145,26.855,26.367,-445.312,-710.449
1706145156.041,513.184,28.320,13.184,386.230,113.281
1706145156.045,-884.766,38.574,18.555,579.590,837.402
1706145156.049,-152.344,39.062,35.645,-228.027,34.180
1706145156.053,-1000.000,24.902,33.203,-601.562,-709.961
1706145156.057,101.074,21.484,17.090,146.973,-177.734
1706145156.061,-792.969,34.180,17.578,677.734,841.309
1706145156.065,206.543,41.504,28.809,-18.555,332.031
1706145156.068,-1000.000,30.273,28.809,-664.062,-659.180
1706145156.072,-258.789,19.531,15.137,-62.012,-408.691
1706145156.076,-897.461,25.879,8.301,672.852,678.223
1706145156.080,508.301,39.062,28.320,194.336,554.688
1706145156.084,-987.793,36.621,40.527,-594.727,-483.398
1706145156.086,-605.957,26.855,26.855,-272.949,-636.230
1706145156.090,810.059,27.832,17.578,544.434,333.008
1706145156.094,895.020,36.621,25.391,426.270,705.078
1706145156.098,-551.270,41.504,37.598,-411.621,-227.539
1706145156.102,-920.410,27.344,21.973,-501.465,-703.125
1706145156.106,400.879,27.344,5.859,323.242,47.363
1706145156.110,-841.309,37.598,14.160,623.535,849.121
1706145156.113,-41.992,36.621,35.645,-177.734,68.359
1706145156.117,-1000.000,24.414,34.180,-642.090,-761.719
1706145156.121,3.906,20.508,19.043,88.379,-237.305
1706145156.125,-801.270,28.809,14.648,678.711,785.645
1706145156.129,277.344,39.062,21.973,29.785,367.188
1706145156.146,-1000.000,30.273,27.832,-644.531,-573.730
1706145156.150,-339.844,15.137,19.531,-110.352,-440.430
1706145156.154,-948.730,21.973,15.137,648.926,569.336
1706145156.158,596.680,40.039,30.762,269.043,576.172
1706145156.162,-906.738,37.109,40.039,-552.734,-416.992
1706145156.166,-697.754,20.508,22.461,-354.004,-659.180
1706145156.170,704.102,20.996,12.207,470.215,247.559
1706145156.173,982.910,35.645,20.020,470.215,779.297
1706145156.177,-409.668,40.527,31.738,-361.816,-40.039
1706145156.181,-973.145,24.414,27.344,-542.480,-670.898
1706145156.185,299.805,20.020,20.508,270.996,-48.828
1706145156.189,-810.059,28.320,21.973,646.973,845.703
1706145156.177,56.152,36.133,30.273,-123.047,218.262
1706145156.181,-1000.000,29.785,32.227,-645.996,-616.699
1706145156.185,-86.426,18.066,20.996,41.504,-250.488
1706145156.189,-818.848,22.949,11.719,684.082,753.906
1706145156.193,347.656,37.109,24.902,92.773,454.102
1706145156.197,-1000.000,30.762,36.621,-634.277,-578.613
1706145156.201,-424.316,18.066,18.555,-166.992,-571.289
1706145156.204,991.211,27.344,8.789,622.070,502.930
1706145156.208,696.777,41.016,23.926,320.801,636.230
1706145156.212,-803.711,37.598,37.598,-513.672,-318.848
1706145156.216,-765.625,26.855,24.414,-400.879,-665.527
1706145156.220,621.094,30.762,9.766,438.965,173.828
1706145156.236,-943.848,40.039,16.602,543.945,832.031
1706145156.240,-274.902,42.969,32.715,-283.691,-78.125
1706145156.244,-1000.000,31.738,28.809,-571.777,-754.883
1706145156.248,208.984,26.855,15.625,208.984,-111.328
1706145156.252,-791.016,33.203,18.066,670.898,843.750
1706145156.256,135.742,37.598,36.133,-56.641,270.508
1706145156.260,-1000.000,27.832,38.574,-647.461,-630.371
1706145156.263,-157.227,20.020,15.625,-10.254,-312.500
1706145156.267,-842.773,26.855,10.254,674.316,705.078
1706145156.271,424.316,36.621,24.414,141.602,519.043
1706145156.275,-1000.000,33.203,28.809,-606.934,-472.168
1706145156.279,-512.207,20.996,20.996,-207.520,-554.199
1706145156.281,900.879,18.066,18.555,571.289,415.527
1706145156.285,802.246,28.320,29.785,352.051,676.270
1706145156.289,-676.758,34.180,41.992,-472.168,-269.531
1706145156.293,-839.355,19.531,28.809,-448.730,-717.285
1706145156.297,522.461,15.625,16.113,375.488,80.566
1706145156.301,-884.766,28.320,20.020,560.547,802.246
1706145156.305,-148.926,34.180,32.715,-244.629,38.574
1706145156.308,-1000.000,21.973,19.531,-606.445,-690.918
1706145156.312,101.562,15.625,3.418,152.832,-147.461
1706145156.316,-792.969,25.879,14.160,669.434,836.426
1706145156.320,208.984,36.133,36.621,-21.484,358.398
1706145156.324,-1000.000,29.297,37.109,-660.645,-632.324
1706145156.326,-252.930,20.996,10.254,-75.684,-453.613
1706145156.330,-898.438,27.832,3.418,657.715,637.207
1706145156.334,512.695,41.504,28.320,198.730,553.711
1706145156.338,-984.375,38.086,42.969,-579.590,-462.891
1706145156.342,-593.262,22.461,20.020,-262.695,-644.531
1706145156.346,822.754,25.391,3.906,552.246,333.496
1706145156.350,897.949,39.551,21.484,438.477,724.609
1706145156.353,-543.945,41.992,39.062,-397.949,-228.516
1706145156.357,-923.340,27.832,28.320,-489.258,-670.410
1706145156.361,395.020,27.832,11.719,329.590,77.637
1706145156.365,-836.426,41.992,3.418,619.141,864.258
1706145156.369,-31.738,48.828,10.742,-167.969,151.855
1706145156.372,-1000.000,32.715,8.301,-620.605,-712.402
1706145156.376,6.348,21.973,11.719,82.520,-257.812
1706145156.380,-801.758,30.762,20.020,678.711,802.246
1706145156.384,278.809,42.480,43.945,47.363,389.648
1706145156.388,-1000.000,37.109,40.039,-639.160,-652.344
1706145156.392,-340.820,24.414,-12.207,-119.141,-525.391
1706145156.396,-960.449,28.809,-9.766,627.441,600.586
1706145156.399,605.469,41.016,29.785,238.770,583.008
1706145156.403,-895.996,40.527,60.547,-564.941,-434.570
1706145156.407,-699.219,23.926,41.992,-343.750,-666.504
1706145156.411,700.195,23.926,15.137,480.469,251.465
1706145156.415,989.746,39.062,19.531,474.121,794.434
1706145156.417,-396.484,41.016,34.180,-356.445,-142.090
1706145156.421,-975.098,28.320,-0.977,-541.504,-795.898
1706145156.425,291.016,24.414,-11.230,256.348,-88.379
1706145156.429,-809.082,31.738,28.809,636.230,832.031
1706145156.433,61.523,37.109,52.246,-122.070,210.449
1706145156.437,-1000.000,28.809,44.434,-645.020,-633.789
1706145156.441,-74.707,26.367,19.043,41.016,-273.438
1706145156.444,-816.895,35.156,10.254,679.688,746.582
1706145156.448,353.027,48.340,29.785,93.262,455.566
1706145156.452,-1000.000,46.387,42.969,-622.070,-533.691
1706145156.456,-428.711,30.762,-10.742,-157.715,-507.324
1706145156.460,983.887,31.250,-41.992,628.906,507.812
1706145156.461,709.473,42.480,16.113,318.848,619.629
1706145156.465,-786.621,37.598,69.824,-521.973,-374.512
1706145156.469,-772.461,23.438,50.293,-417.969,-693.848
1706145156.473,601.074,26.367,23.438,420.898,187.988
1706145156.477,-945.312,37.598,26.855,535.645,831.055
1706145156.481,-263.672,41.992,39.062,-292.480,-62.500
1706145156.485,-1000.000,30.762,29.785,-588.867,-720.703
1706145156.488,188.965,27.832,10.742,193.359,-107.910
1706145156.492,-793.945,38.574,8.301,661.133,847.656
1706145156.496,140.625,45.898,26.367,-64.453,294.434
1706145156.500,-1000.000,38.574,20.020,-657.715,-647.461
1706145156.504,-164.062,29.785,-3.418,-20.508,-387.695
1706145156.506,-846.680,33.691,7.324,676.758,692.871
1706145156.510,431.641,45.898,31.738,147.461,512.207
1706145156.514,-1000.000,40.039,34.668,-625.488,-541.016
1706145156.518,-527.344,26.367,18.555,-252.930,-601.074
1706145156.522,892.090,29.785,11.719,563.477,435.547
1706145156.526,808.594,42.969,26.367,371.094,702.637
1706145156.530,-667.969,41.992,39.551,-468.262,-265.137
1706145156.533,-861.816,26.367,23.926,-445.312,-710.938
1706145156.537,495.605,26.367,2.441,388.672,76.660
1706145156.541,-879.883,37.109,9.766,580.078,822.266
1706145156.545,-142.578,40.039,34.180,-234.863,58.594
1706145156.549,-1000.000,28.320,33.203,-609.375,-715.820
1706145156.581,99.609,24.902,15.625,146.973,-217.285
1706145156.585,-788.574,34.668,13.672,682.129,796.875
1706145156.589,212.402,41.016,33.691,-7.324,315.430
1706145156.593,-1000.000,30.762,37.109,-659.180,-643.066
1706145156.597,-258.301,20.508,19.043,-69.824,-381.348
1706145156.601,-890.625,29.785,12.695,671.387,635.254
1706145156.605,510.742,45.898,27.344,203.125,535.645
1706145156.608,-987.305,41.016,36.621,-591.309,-488.770
1706145156.612,-604.004,26.855,20.996,-280.273,-702.637
1706145156.616,811.523,29.785,10.742,530.762,299.316
1706145156.620,906.738,42.480,19.043,429.199,708.008
1706145156.624,-530.273,39.062,32.715,-403.809,-198.730
1706145156.611,-929.688,21.484,24.414,-502.441,-751.465
1706145156.615,379.883,21.484,12.207,312.012,-22.461
1706145156.619,-841.797,31.250,15.625,607.910,821.289
1706145156.623,-29.785,37.109,33.203,-173.340,155.273
1706145156.627,-1000.000,23.926,36.133,-633.789,-610.840
1706145156.631,-9.766,15.625,20.020,73.730,-230.957
1706145156.635,-800.781,28.320,14.648,671.875,779.785
1706145156.638,275.879,39.062,30.762,35.645,395.508
1706145156.642,-1000.000,30.273,38.574,-653.809,-583.008
1706145156.646,-353.516,20.020,20.508,-130.859,-464.355
1706145156.650,-954.590,27.832,12.695,628.906,540.527
1706145156.654,604.492,41.992,28.809,246.582,581.055
1706145156.656,-904.297,40.039,40.039,-560.059,-372.559
1706145156.660,-689.941,22.949,23.926,-345.215,-682.617
1706145156.664,716.309,21.973,12.207,478.027,201.172
1706145156.668,986.816,37.109,24.414,479.980,723.145
1706145156.672,-403.809,38.574,39.551,-352.051,-139.160
1706145156.676,-978.516,23.926,27.344,-542.480,-670.410
1706145156.680,294.922,22.461,10.742,256.836,-52.734
1706145156.683,-805.664,32.715,14.648,643.555,810.547
1706145156.687,58.594,38.574,31.250,-114.746,178.223
1706145156.691,-1000.000,28.320,28.320,-660.645,-693.848
1706145156.695,-72.266,19.531,11.230,20.508,-301.758
1706145156.699,-812.988,29.297,10.742,673.340,726.562
1706145156.701,352.539,40.039,28.320,87.891,436.035
1706145156.705,-1000.000,34.668,34.180,-640.137,-458.008
1706145156.709,-429.199,25.391,18.066,-191.895,-473.145
1706145156.713,992.188,30.273,10.254,604.492,468.750
1706145156.717,705.078,41.504,25.879,314.941,616.211
1706145156.721,-794.922,38.574,38.574,-518.555,-333.008
1706145156.725,-772.949,22.461,21.484,-412.598,-713.379
1706145156.728,609.863,24.414,11.719,413.574,96.680
1706145156.732,-939.453,36.621,22.461,526.855,727.051
1706145156.736,-263.672,41.016,37.598,-288.574,-82.520
1706145156.740,-1000.000,29.297,32.227,-578.613,-721.680
1706145156.744,188.965,24.902,16.113,195.312,-133.301
1706145156.747,-790.039,35.156,13.672,658.203,839.844
1706145156.751,145.020,40.039,31.250,-59.570,251.953
1706145156.755,-1000.000,29.785,33.203,-655.273,-663.574
1706145156.759,-173.828,20.508,13.184,-29.785,-326.660
1706145156.763,-848.145,29.785,9.277,661.133,707.031
1706145156.767,433.594,42.969,29.297,139.160,491.211
1706145156.771,-1000.000,36.133,39.551,-618.164,-482.910
1706145156.774,-519.531,22.461,19.531,-241.211,-588.379
1706145156.778,903.809,25.879,10.254,566.895,339.844
1706145156.782,808.594,41.016,22.949,372.070,663.574
1706145156.786,-670.410,39.551,34.668,-471.680,-220.215
1706145156.790,-853.516,25.879,27.832,-462.891,-664.062
1706145156.791,505.859,29.785,17.090,380.371,115.723
1706145156.795,-878.906,42.480,23.926,587.891,843.262
1706145156.799,-137.207,44.922,42.480,-228.027,33.691
1706145156.803,-1000.000,29.297,38.086,-613.770,-666.016
1706145156.807,85.938,24.414,22.949,128.906,-121.582
1706145156.811,-789.062,35.645,21.973,675.293,823.242
1706145156.815,218.262,41.992,35.645,-5.371,320.312
1706145156.818,-1000.000,33.203,41.016,-652.344,-612.793
1706145156.822,-277.832,24.414,23.926,-75.195,-386.230
1706145156.826,-901.855,29.785,17.090,651.367,648.926
1706145156.830,517.090,41.992,35.645,197.754,535.156
1706145156.834,-983.398,40.527,47.363,-587.402,-438.965
1706145156.836,-606.445,25.391,30.762,-278.320,-592.285
1706145156.840,809.082,26.367,20.508,539.062,315.430
1706145156.844,910.156,41.016,35.645,435.059,733.887
1706145156.848,-529.297,40.527,52.246,-392.090,-187.012
1706145156.852,-920.898,26.855,37.598,-475.586,-686.523
1706145156.856,396.484,26.855,20.996,333.984,46.387
1706145156.860,-830.078,35.156,27.832,624.023,808.105
1706145156.863,-14.160,39.062,41.016,-166.504,85.938
1706145156.867,-1000.000,28.809,35.156,-634.766,-672.363
1706145156.871,-7.324,23.926,20.020,88.867,-217.773
1706145156.875,-798.340,32.715,16.602,691.895,770.508
1706145156.879,284.180,40.527,34.668,47.852,363.281
1706145156.883,-1000.000,34.668,42.480,-641.113,-604.492
1706145156.887,-351.074,22.949,27.832,-127.441,-499.512
1706145156.891,-953.125,23.438,21.484,631.836,520.996
1706145156.895,613.281,36.621,36.621,271.484,599.121
1706145156.899,-895.996,35.645,51.758,-538.574,-361.816
1706145156.903,-697.266,21.484,37.598,-340.820,-666.992
1706145156.907,714.844,26.855,17.090,475.098,247.559
1706145156.910,991.211,41.504,22.461,480.957,782.227
1706145156.914,-395.020,43.457,47.363,-341.797,-104.004
1706145156.918,-983.398,30.273,41.504,-539.551,-670.898
1706145156.922,280.762,27.832,25.391,265.137,-35.156
1706145156.926,-804.199,37.598,26.855,658.203,848.145
1706145156.941,70.312,41.992,41.504,-105.957,208.008
1706145156.945,-1000.000,28.809,40.527,-642.578,-638.184
1706145156.949,-90.332,18.555,25.391,37.109,-262.207
1706145156.953,-818.848,28.320,23.438,687.500,697.266
1706145156.957,364.258,36.621,41.016,107.422,429.199
1706145156.961,-1000.000,27.344,48.828,-627.441,-506.836
1706145156.965,-446.289,17.090,28.809,-197.754,-501.953
1706145156.968,969.727,25.391,19.043,591.797,493.164
1706145156.972,712.891,38.574,38.086,326.172,638.672
1706145156.976,-786.133,34.180,43.457,-508.789,-340.820
1706145156.980,-784.668,17.090,21.484,-407.227,-694.824
