timestamps,TP9,AF7,AF8,TP10,Right AUX
1709251141.137,-9.277,34.668,-971.191,-2.930,0.977
1709251141.141,20.996,34.180,-971.191,23.926,24.902
1709251141.145,36.133,35.156,-971.191,31.738,26.855
1709251141.149,14.160,39.062,-971.191,11.230,27.344
1709251141.153,3.418,41.504,-971.191,10.254,17.578
1709251141.157,25.879,40.527,-971.191,18.555,4.395
1709251141.161,57.617,36.621,-971.191,28.809,23.438
1709251141.164,56.152,39.062,-971.191,37.598,42.480
1709251141.168,25.879,44.434,-971.191,21.484,16.602
1709251141.172,12.695,38.574,-971.191,27.344,5.859
1709251141.176,36.133,35.645,-971.191,34.180,59.570
1709251141.180,48.828,43.457,-969.238,24.414,35.645
1709251141.182,21.973,40.527,-973.145,17.578,9.766
1709251141.186,12.695,35.645,-946.289,11.230,39.062
1709251141.190,40.039,31.250,-871.582,30.762,51.270
1709251141.194,60.547,27.344,-830.078,35.156,44.434
1709251141.198,35.156,36.133,-778.809,29.297,19.531
1709251141.202,-2.930,36.133,-693.359,41.992,18.066
1709251141.206,28.320,29.297,-602.051,58.105,42.969
1709251141.209,69.824,34.180,-568.359,60.059,62.988
1709251141.213,27.344,39.062,-541.016,31.250,39.062
1709251141.217,-12.207,34.668,-446.289,14.648,24.414
1709251141.221,14.648,34.668,-415.527,40.039,20.020
1709251141.225,50.293,35.645,-398.438,41.992,31.250
1709251141.228,41.016,31.250,-367.188,36.621,32.715
1709251141.232,11.719,30.273,-338.379,27.344,23.926
1709251141.236,18.555,30.762,-309.570,23.438,20.996
1709251141.240,51.758,32.227,-277.832,37.598,11.719
1709251141.244,58.105,33.691,-256.836,35.645,11.230
1709251141.248,27.344,31.738,-234.375,18.066,39.551
1709251141.252,0.977,29.297,-202.637,21.484,41.504
1709251141.255,22.949,27.832,-209.473,35.156,26.855
1709251141.259,47.363,29.785,-207.031,35.645,26.855
1709251141.263,30.273,32.227,-181.152,33.203,20.020
1709251141.267,4.883,29.785,-217.773,27.832,45.410
1709251141.271,14.648,28.809,-243.652,22.949,27.344
1709251141.272,40.039,26.855,-231.934,29.785,9.277
1709251141.276,25.391,29.297,-247.070,17.578,29.785
1709251141.280,3.906,34.180,-289.551,3.906,23.438
1709251141.284,24.902,30.273,-272.949,20.508,21.973
1709251141.288,56.641,28.809,-261.230,39.062,29.297
1709251141.292,47.363,31.738,-307.129,42.969,21.973
1709251141.296,11.719,34.668,-341.797,20.996,13.184
1709251141.299,9.277,40.039,-370.117,11.719,4.395
1709251141.303,38.086,38.086,-339.844,28.320,54.199
1709251141.307,48.340,37.109,-403.809,25.879,61.523
1709251141.311,22.949,41.992,-546.875,13.672,-18.555
1709251141.315,-0.977,39.551,-552.734,22.461,-8.789
1709251141.332,31.738,33.691,-522.949,31.250,51.758
1709251141.336,59.082,34.180,-601.074,33.203,42.480
1709251141.340,26.855,36.133,-659.668,21.973,11.719
1709251141.344,0.977,34.668,-642.578,6.836,36.133
1709251141.348,10.254,29.297,-649.414,24.414,63.965
1709251141.352,33.691,28.320,-709.961,41.016,23.438
1709251141.356,23.438,37.109,-738.770,28.320,1.465
1709251141.359,-8.301,42.480,-722.656,12.695,34.668
1709251141.363,6.348,41.992,-693.848,14.648,54.688
1709251141.367,38.574,44.922,-737.793,33.203,37.109
1709251141.371,38.086,47.363,-780.273,40.039,16.113
1709251141.375,19.531,46.875,-785.645,29.785,15.625
1709251141.362,21.973,42.969,-793.457,21.973,22.949
1709251141.366,48.828,41.992,-824.219,44.922,57.617
1709251141.370,41.016,39.062,-882.812,58.105,51.270
1709251141.374,2.930,36.133,-905.762,43.945,0.977
1709251141.378,-8.301,35.156,-921.387,31.738,20.020
1709251141.382,23.438,34.668,-955.078,38.086,46.875
1709251141.386,67.871,35.645,-973.633,51.758,23.926
1709251141.389,55.664,34.668,-969.727,48.340,18.066
1709251141.393,3.418,36.621,-971.191,38.574,6.348
1709251141.397,19.531,38.086,-971.191,54.688,5.371
1709251141.401,53.223,40.039,-971.191,53.223,0.488
1709251141.405,35.156,42.480,-971.191,23.438,1.465
1709251141.408,3.906,41.992,-971.191,19.043,-2.930
1709251141.412,12.695,42.480,-971.191,35.156,-5.371
1709251141.416,40.527,42.969,-971.191,50.293,31.250
1709251141.420,40.039,40.527,-971.191,34.180,32.227
1709251141.424,18.066,45.898,-971.191,14.648,4.395
1709251141.428,16.113,48.340,-971.191,23.438,-0.977
1709251141.432,53.711,43.945,-971.191,36.621,25.879
1709251141.435,58.594,38.086,-971.191,35.645,42.969
1709251141.439,7.324,41.504,-971.191,28.320,32.715
1709251141.443,-8.789,47.363,-971.191,20.508,0.488
1709251141.447,27.344,41.504,-971.191,37.598,19.043
1709251141.451,56.641,37.109,-971.191,42.969,74.219
1709251141.468,41.504,38.086,-971.191,20.996,42.480
1709251141.472,11.719,45.410,-971.191,21.973,-3.906
1709251141.476,25.391,48.340,-971.191,29.785,27.832
1709251141.480,53.223,41.504,-971.191,36.621,51.270
1709251141.484,44.434,42.969,-971.191,38.086,21.484
1709251141.488,12.207,49.805,-971.191,18.066,-18.066
1709251141.492,15.137,42.969,-971.191,20.996,-7.812
1709251141.495,52.734,38.574,-971.191,52.734,25.879
1709251141.499,50.781,41.504,-971.191,48.828,20.020
1709251141.503,14.160,41.504,-971.191,25.391,17.090
1709251141.507,7.324,41.504,-971.191,20.508,7.324
1709251141.511,58.105,42.969,-971.191,44.922,30.762
1709251141.512,87.402,43.945,-971.191,43.457,34.668
1709251141.516,37.109,43.457,-971.191,18.066,-0.488
1709251141.520,1.953,41.992,-971.191,23.438,0.488
1709251141.524,21.484,40.039,-971.191,39.551,8.789
1709251141.528,50.781,42.969,-971.191,53.711,30.273
1709251141.532,38.086,44.434,-971.191,49.316,48.340
1709251141.536,1.953,41.504,-971.191,27.344,4.883
1709251141.539,18.066,39.062,-971.191,30.273,20.020
1709251141.543,57.617,43.945,-971.191,58.105,33.203
1709251141.547,57.617,43.945,-971.191,43.945,7.812
1709251141.551,20.020,39.062,-971.191,15.137,8.301
1709251141.555,15.625,41.992,-971.191,36.621,30.273
1709251141.558,53.223,39.551,-971.191,52.734,54.688
1709251141.562,58.594,38.574,-971.191,25.391,45.410
1709251141.566,24.902,41.992,-971.191,23.438,28.320
1709251141.570,13.672,44.434,-971.191,26.367,34.668
1709251141.574,44.922,43.457,-971.191,30.762,64.453
1709251141.578,64.453,43.457,-971.191,45.898,48.340
1709251141.582,43.457,45.898,-971.191,37.109,18.555
1709251141.585,16.602,45.410,-971.191,14.648,7.324
1709251141.589,25.879,43.457,-971.191,23.438,-16.113
1709251141.593,41.992,36.621,-971.191,32.715,13.672
1709251141.597,28.320,34.180,-971.191,24.414,30.273
1709251141.601,12.695,36.621,-971.191,24.414,28.320
1709251141.602,23.926,34.180,-971.191,26.855,45.898
1709251141.606,53.711,32.715,-971.191,41.504,52.734
1709251141.610,51.758,35.156,-971.191,48.828,28.320
1709251141.614,13.672,30.273,-971.191,34.180,2.930
1709251141.618,7.812,28.320,-971.191,22.461,33.691
1709251141.622,32.715,35.645,-971.191,43.457,52.246
1709251141.626,33.203,37.598,-971.191,53.223,41.016
1709251141.629,10.742,42.480,-971.191,38.086,0.488
1709251141.633,-2.930,43.457,-971.191,22.949,-20.996
1709251141.637,27.344,37.109,-971.191,17.090,35.156
1709251141.641,49.805,36.621,-971.191,37.598,82.520
1709251141.645,32.715,37.109,-971.191,35.645,57.617
1709251141.647,25.391,37.598,-971.191,19.531,27.344
1709251141.651,30.762,37.598,-971.191,28.320,38.574
1709251141.655,23.926,32.227,-971.191,41.992,50.781
1709251141.659,11.230,33.691,-971.191,42.480,44.922
1709251141.663,-2.441,41.016,-971.191,34.180,45.410
1709251141.667,16.602,42.969,-971.191,33.203,41.016
1709251141.671,71.777,41.992,-971.191,49.316,31.738
1709251141.674,77.148,44.922,-971.191,37.109,10.742
1709251141.678,25.391,41.504,-971.191,26.855,30.762
1709251141.682,10.742,40.527,-971.191,41.016,59.570
1709251141.686,47.852,45.898,-971.191,47.852,39.551
1709251141.690,56.641,45.410,-971.191,52.734,24.902
1709251141.694,23.926,37.598,-971.191,35.156,26.855
1709251141.698,8.301,41.016,-971.191,30.273,27.832
1709251141.702,38.086,39.062,-971.191,44.922,-4.395
1709251141.706,62.012,35.645,-971.191,42.969,8.301
1709251141.710,36.133,38.574,-971.191,30.273,9.766
1709251141.714,18.066,40.527,-971.191,16.602,-18.066
1709251141.718,36.621,44.922,-971.191,35.645,-15.137
1709251141.721,54.688,41.504,-971.191,52.734,17.090
1709251141.725,41.016,37.109,-971.191,31.250,53.711
1709251141.729,9.277,40.527,-971.191,15.137,33.203
1709251141.733,-6.836,38.574,-971.191,23.926,49.805
1709251141.737,31.738,33.691,-971.191,39.551,79.102
1709251141.737,52.734,37.598,-971.191,51.758,18.066
1709251141.741,25.391,43.457,-971.191,50.781,-0.977
1709251141.745,9.766,44.922,-971.191,22.461,37.598
1709251141.749,28.320,44.922,-971.191,14.160,33.691
1709251141.753,46.875,42.969,-971.191,19.531,35.645
1709251141.757,36.133,43.945,-971.191,21.973,36.133
1709251141.761,8.301,44.922,-971.191,18.066,2.930
1709251141.764,15.625,39.062,-971.191,32.227,6.836
1709251141.768,51.758,38.574,-971.191,44.922,55.664
1709251141.772,44.434,45.898,-971.191,31.250,34.668
1709251141.776,8.301,46.875,-971.191,27.344,16.602
1709251141.780,24.902,43.945,-971.191,45.410,36.621
1709251141.797,74.219,44.922,-971.191,45.410,49.805
1709251141.801,64.941,46.875,-971.191,34.668,40.527
1709251141.805,20.020,47.363,-971.191,21.484,9.277
1709251141.809,9.766,44.434,-971.191,13.672,12.695
1709251141.813,49.805,41.016,-971.191,33.203,54.688
1709251141.817,72.754,44.434,-971.191,38.086,21.484
1709251141.821,30.273,41.992,-971.191,20.020,21.484
1709251141.824,6.348,38.086,-971.191,17.578,39.062
1709251141.828,39.551,39.551,-971.191,30.273,5.371
1709251141.832,46.387,41.504,-971.191,30.273,0.977
1709251141.836,13.672,43.457,-971.191,13.184,-10.742
1709251141.840,-3.418,41.016,-971.191,3.418,0.000
1709251141.842,18.066,37.598,-971.191,24.902,21.484
1709251141.846,53.711,34.668,-971.191,47.363,36.621
1709251141.850,46.875,29.785,-971.191,27.344,76.172
1709251141.854,6.836,33.691,-971.191,3.418,65.430
1709251141.858,5.371,36.133,-971.191,11.719,50.781
1709251141.862,41.504,35.156,-971.191,30.273,48.340
1709251141.866,43.457,38.086,-971.191,25.391,12.207
1709251141.869,9.277,36.133,-971.191,19.043,56.641
1709251141.873,3.906,33.691,-971.191,34.180,34.668
1709251141.877,24.414,35.156,-971.191,42.969,-12.695
1709251141.881,39.551,33.691,-971.191,34.668,25.391
1709251141.885,23.926,31.250,-971.191,18.066,43.457
1709251141.889,1.953,35.156,-971.191,16.113,17.090
1709251141.893,30.762,37.109,-971.191,41.016,29.297
1709251141.897,72.754,35.645,-971.191,40.039,51.270
1709251141.901,45.898,36.621,-971.191,30.273,22.949
1709251141.905,12.695,40.039,-971.191,35.156,1.465
1709251141.909,29.785,41.992,-971.191,42.969,20.996
1709251141.913,46.387,40.527,-971.191,48.340,33.203
1709251141.916,36.133,43.457,-971.191,32.715,33.691
1709251141.920,10.254,46.387,-971.191,24.414,-2.930
1709251141.924,16.602,46.387,-971.191,36.621,-13.184
1709251141.928,51.270,49.805,-971.191,44.434,22.949
1709251141.932,55.664,49.316,-971.191,45.898,37.109
1709251141.933,20.020,47.363,-971.191,38.086,23.438
1709251141.937,12.207,46.875,-971.191,22.949,29.785
1709251141.941,48.340,43.457,-971.191,24.414,28.320
1709251141.945,65.430,46.387,-971.191,30.273,13.672
1709251141.949,26.855,46.875,-971.191,18.555,3.418
1709251141.953,4.395,47.852,-971.191,17.578,10.254
1709251141.957,42.480,48.340,-971.191,37.109,30.273
1709251141.960,58.594,46.387,-971.191,40.039,38.086
1709251141.964,39.062,51.270,-971.191,20.508,-1.953
1709251141.968,20.020,46.875,-971.191,11.230,1.465
1709251141.972,31.738,44.434,-971.191,21.973,48.828
1709251141.976,52.246,51.758,-971.191,40.527,38.086
1709251141.977,41.992,53.711,-971.191,38.086,38.086
1709251141.981,16.113,53.223,-971.191,24.414,40.527
1709251141.985,28.809,51.758,-971.191,33.203,28.809
1709251141.989,69.336,49.805,-971.191,49.805,43.457
1709251141.993,69.336,51.758,-971.191,47.363,52.734
1709251141.997,17.578,51.758,-971.191,37.598,43.945
1709251142.001,7.812,49.316,-971.191,36.621,20.996
1709251142.004,59.082,52.734,-971.191,44.434,11.230
1709251142.008,67.871,50.781,-971.191,44.922,25.879
1709251142.012,29.785,46.875,-971.191,20.996,45.898
1709251142.016,-4.883,50.293,-971.191,17.578,25.391
1709251142.020,16.602,46.875,-971.191,41.504,43.945
1709251142.022,49.316,41.016,-971.191,52.246,61.035
1709251142.026,29.785,43.945,-971.191,45.898,53.223
1709251142.030,10.742,45.898,-971.191,58.105,57.129
1709251142.034,30.273,38.086,-971.191,64.453,71.289
1709251142.038,70.801,41.992,-971.191,45.410,45.898
1709251142.042,71.289,51.270,-971.191,33.691,0.488
1709251142.046,36.133,49.805,-971.191,27.832,13.672
1709251142.049,19.043,47.363,-971.191,30.273,12.207
1709251142.053,28.809,40.527,-971.191,40.527,13.672
1709251142.057,52.734,39.062,-971.191,41.016,40.527
1709251142.061,42.480,45.898,-971.191,35.645,44.922
1709251142.065,16.113,42.969,-971.191,42.480,36.621
1709251142.067,27.832,38.086,-971.191,50.781,15.137
1709251142.071,56.641,37.598,-971.191,47.852,39.062
1709251142.075,35.645,38.574,-971.191,31.738,24.902
1709251142.079,10.254,39.062,-971.191,27.344,15.625
1709251142.083,38.086,38.086,-971.191,35.645,53.711
1709251142.087,58.594,40.039,-971.191,40.527,34.668
1709251142.091,34.668,42.969,-971.191,34.180,-2.930
1709251142.094,5.859,43.457,-971.191,30.762,13.184
1709251142.098,21.484,39.062,-971.191,40.527,37.598
1709251142.102,48.828,38.574,-971.191,38.086,27.832
1709251142.106,44.922,39.551,-971.191,36.621,18.555
1709251142.110,13.672,38.574,-971.191,40.527,38.086
1709251142.113,9.277,35.156,-971.191,23.438,62.012
1709251142.117,47.852,36.133,-971.191,41.016,60.059
1709251142.121,68.848,40.527,-971.191,55.664,3.906
1709251142.125,42.480,41.504,-971.191,49.316,4.395
1709251142.129,22.461,45.898,-971.191,49.805,25.391
1709251142.133,39.062,45.410,-971.191,59.570,22.949
1709251142.137,51.270,41.992,-971.191,49.805,16.602
1709251142.140,29.785,40.039,-971.191,20.996,19.531
1709251142.144,7.812,40.039,-971.191,21.973,8.789
1709251142.148,30.273,39.551,-971.191,32.715,-16.602
1709251142.152,60.547,40.527,-971.191,41.016,-5.859
1709251142.156,47.363,41.504,-971.191,26.855,7.812
1709251142.158,20.020,40.039,-971.191,12.695,26.855
1709251142.162,11.230,43.457,-971.191,33.691,20.020
1709251142.166,35.645,41.992,-971.191,53.711,0.977
1709251142.170,47.852,38.086,-971.191,46.387,23.438
1709251142.174,20.508,41.992,-971.191,32.227,35.156
1709251142.178,12.695,44.434,-971.191,37.598,14.648
1709251142.182,37.109,40.527,-971.191,43.457,19.531
1709251142.185,55.176,37.109,-971.191,30.273,32.227
1709251142.189,39.062,39.062,-971.191,20.996,31.250
1709251142.193,22.949,42.480,-971.191,21.973,26.367
1709251142.197,23.438,38.574,-971.191,26.855,18.066
1709251142.201,35.156,38.086,-971.680,41.016,33.203
1709251142.217,24.902,41.992,-969.238,32.715,47.363
1709251142.221,-2.930,41.992,-976.074,17.090,46.387
1709251142.225,18.066,41.016,-951.172,29.785,73.730
1709251142.229,48.340,42.969,-931.641,51.270,65.430
1709251142.233,44.434,42.480,-947.754,52.734,37.109
1709251142.237,16.602,43.945,-960.938,24.414,0.000
1709251142.241,13.672,42.969,-869.629,5.371,-15.625
1709251142.244,58.105,42.480,-794.922,26.367,38.574
1709251142.248,60.059,44.922,-850.586,27.832,26.855
1709251142.252,19.043,43.945,-820.801,15.137,21.484
1709251142.256,-6.836,40.527,-768.066,5.371,37.109
1709251142.260,16.113,37.598,-762.695,29.785,30.762
1709251142.262,44.922,37.109,-753.418,54.688,39.551
1709251142.266,32.227,40.039,-726.074,26.855,42.969
1709251142.270,24.414,42.969,-701.172,12.695,18.066
1709251142.274,51.758,34.668,-672.363,32.227,5.859
1709251142.278,69.824,36.621,-663.574,40.527,7.324
1709251142.282,48.340,45.410,-660.156,27.832,27.344
1709251142.286,18.066,43.945,-642.090,14.648,25.879
1709251142.289,6.836,41.016,-592.285,28.809,26.367
1709251142.293,34.180,39.551,-609.375,56.152,12.207
1709251142.297,39.062,37.598,-604.004,39.062,-17.578
1709251142.301,9.277,35.156,-536.621,16.113,9.277
1709251142.305,11.230,37.109,-564.453,24.414,24.902
1709251142.307,33.691,44.434,-564.941,43.945,16.602
1709251142.311,43.457,48.340,-527.344,45.410,57.617
1709251142.315,19.531,48.340,-545.410,29.297,68.359
1709251142.319,22.461,49.805,-566.895,28.320,11.719
1709251142.323,53.711,44.922,-536.621,41.504,5.371
1709251142.327,57.617,40.527,-518.066,43.945,17.578
1709251142.331,35.156,44.434,-500.488,31.738,34.668
1709251142.334,6.836,41.992,-517.090,20.996,32.227
1709251142.338,28.320,41.016,-514.648,29.297,36.621
1709251142.342,70.312,39.551,-453.125,37.598,73.242
1709251142.346,39.551,41.992,-484.863,26.855,68.359
1709251142.350,-4.883,45.410,-550.293,22.949,31.738
1709251142.353,19.043,40.039,-541.992,25.879,32.715
1709251142.357,51.758,37.109,-523.926,25.879,45.410
1709251142.361,41.504,39.551,-573.242,20.996,44.434
1709251142.365,6.836,38.086,-586.426,18.555,29.297
1709251142.369,-1.953,39.062,-565.918,18.555,36.133
1709251142.373,23.438,39.551,-570.312,37.109,44.434
1709251142.377,47.852,33.691,-539.062,51.758,53.711
1709251142.380,27.832,36.133,-575.684,40.527,45.898
1709251142.384,-6.836,39.062,-544.434,27.832,16.113
1709251142.388,19.043,27.832,-449.707,37.109,41.992
1709251142.392,52.734,28.320,-496.582,41.992,36.621
1709251142.396,31.250,39.551,-516.602,25.879,33.691
1709251142.398,6.836,43.457,-501.465,20.020,49.805
1709251142.402,20.996,39.062,-475.586,28.320,52.246
1709251142.406,38.086,41.016,-476.562,45.898,35.645
1709251142.410,35.645,44.434,-481.445,51.758,17.578
1709251142.414,12.207,38.574,-444.336,26.367,24.414
1709251142.418,2.441,37.598,-440.430,21.484,34.668
1709251142.422,28.809,39.062,-449.219,52.734,26.367
1709251142.425,38.574,39.062,-465.332,54.688,0.488
1709251142.429,18.066,38.574,-405.273,28.320,12.207
1709251142.433,11.719,38.574,-397.949,14.648,37.109
1709251142.437,39.062,40.039,-440.918,23.438,17.578
1709251142.441,61.035,38.086,-423.828,35.156,36.621
1709251142.442,34.668,37.598,-430.176,20.508,50.781
1709251142.446,1.465,42.969,-448.730,10.742,31.738
1709251142.450,17.090,40.039,-447.754,36.133,27.832
1709251142.454,48.828,39.062,-461.426,35.645,6.348
1709251142.458,31.250,38.574,-481.445,26.855,7.324
1709251142.462,-0.977,34.180,-508.301,32.227,27.344
1709251142.466,17.090,37.598,-549.316,37.598,9.277
1709251142.469,55.176,38.086,-526.367,54.688,30.762
1709251142.473,53.223,37.109,-491.211,46.875,89.844
1709251142.477,13.184,40.039,-569.336,28.320,79.590
1709251142.481,-3.906,41.016,-596.680,24.414,47.363
1709251142.485,27.344,41.992,-578.125,29.297,46.387
1709251142.488,46.875,43.945,-576.172,28.809,72.266
1709251142.492,24.902,47.363,-601.074,27.344,80.078
1709251142.496,14.160,49.316,-590.332,28.320,41.504
1709251142.500,44.434,46.387,-511.719,44.434,38.574
1709251142.504,52.734,45.410,-487.793,50.293,59.570
1709251142.508,23.926,47.363,-510.254,46.875,58.105
1709251142.512,7.324,48.340,-506.836,40.527,3.906
1709251142.515,37.598,48.340,-389.160,25.879,-1.953
1709251142.519,71.289,49.316,-331.055,35.645,36.133
1709251142.523,53.711,54.199,-364.258,45.898,52.246
1709251142.527,20.996,55.664,-309.570,38.086,65.430
1709251142.531,20.508,51.758,-225.098,31.250,55.664
1709251142.547,54.688,49.316,-190.430,52.246,45.410
1709251142.551,67.383,51.758,-171.875,58.105,33.691
1709251142.555,43.457,50.293,-110.352,46.875,18.066
1709251142.559,28.809,48.340,-42.969,41.504,30.273
1709251142.563,53.223,44.922,-10.742,47.852,37.598
1709251142.567,76.660,45.898,-35.156,63.965,-1.953
1709251142.571,29.785,45.898,24.414,47.852,10.742
1709251142.574,-0.977,38.086,92.773,40.039,39.062
1709251142.578,39.062,39.551,83.008,64.453,20.508
1709251142.582,63.965,45.898,71.289,62.500,8.789
1709251142.586,31.250,44.922,100.098,48.828,30.273
1709251142.590,14.160,42.969,120.117,38.574,13.184
1709251142.592,35.156,43.457,126.465,51.270,14.648
1709251142.596,53.223,41.504,129.883,62.988,21.484
1709251142.600,44.922,37.109,143.066,36.621,2.441
1709251142.604,25.879,41.504,159.180,25.391,41.016
1709251142.608,26.855,46.875,152.832,34.668,52.246
1709251142.612,42.969,44.434,148.926,46.387,3.906
1709251142.616,56.152,43.945,187.012,30.762,-14.160
1709251142.619,44.922,45.898,244.629,9.766,6.836
1709251142.623,24.414,46.387,230.957,11.719,30.273
1709251142.627,35.156,46.875,229.004,27.832,29.785
1709251142.631,50.781,46.387,315.918,38.086,50.293
1709251142.635,29.785,47.363,300.293,28.320,38.574
1709251142.637,7.812,46.387,270.996,23.438,11.719
1709251142.641,29.297,41.504,331.543,47.363,27.344
1709251142.645,45.410,38.086,373.535,41.016,38.086
1709251142.649,49.805,41.992,353.516,29.785,50.781
1709251142.653,28.320,42.480,354.980,37.598,61.035
1709251142.657,27.832,42.969,377.441,41.992,40.039
1709251142.661,58.105,44.434,419.922,37.598,40.039
1709251142.664,44.922,44.922,442.383,21.973,67.383
1709251142.668,19.043,52.246,387.695,21.973,31.250
1709251142.672,25.879,51.758,424.805,27.344,2.930
1709251142.676,70.312,44.922,506.836,36.133,38.574
1709251142.680,79.102,48.828,461.914,46.875,37.598
1709251142.682,29.297,50.293,447.266,32.715,35.645
1709251142.686,12.207,47.363,481.934,30.273,49.805
1709251142.690,51.758,47.363,489.746,63.477,44.434
1709251142.694,80.566,51.758,464.844,65.918,30.273
1709251142.698,59.082,55.664,455.078,22.949,-5.371
1709251142.702,16.113,51.758,483.398,-4.395,-15.137
1709251142.706,18.066,45.898,511.230,16.113,17.090
1709251142.709,41.992,46.387,484.375,28.809,40.527
1709251142.713,33.691,48.828,451.660,23.926,-9.277
1709251142.717,9.766,42.969,525.391,15.625,0.488
1709251142.721,35.645,44.922,524.414,19.043,37.109
1709251142.725,75.684,48.340,478.027,40.039,28.809
1709251142.727,59.570,46.387,472.168,33.203,34.180
1709251142.731,31.250,44.434,473.633,19.043,22.949
1709251142.735,28.809,43.945,471.191,34.180,11.719
1709251142.739,54.199,45.410,477.051,44.434,-2.441
1709251142.743,63.965,45.410,475.586,51.270,11.230
1709251142.747,34.180,43.945,449.707,35.156,6.348
1709251142.751,11.230,39.551,468.262,14.648,21.484
1709251142.754,44.434,38.574,451.172,52.734,5.371
1709251142.758,68.848,40.527,478.516,72.266,-21.973
1709251142.762,28.809,39.551,521.973,50.781,18.066
1709251142.766,-2.930,40.527,470.215,30.273,17.578
1709251142.770,23.438,37.598,474.609,34.668,9.277
1709251142.772,55.176,38.086,494.141,45.898,26.855
1709251142.776,39.551,37.109,475.098,45.898,17.090
1709251142.780,20.020,33.691,450.195,43.945,0.977
1709251142.784,46.387,40.527,468.750,45.410,-2.441
1709251142.788,72.754,45.898,509.766,66.406,40.039
1709251142.792,64.453,46.387,468.750,61.035,45.410
1709251142.796,40.527,46.387,431.641,33.691,1.465
1709251142.799,25.879,47.363,451.172,31.738,-13.184
1709251142.803,55.664,45.410,503.906,32.227,29.785
1709251142.807,79.590,43.457,480.469,37.109,38.574
1709251142.811,53.711,52.734,425.293,33.691,26.855
1709251142.815,19.043,55.176,422.363,27.832,23.438
1709251142.817,31.738,42.969,481.445,32.715,48.340
1709251142.821,50.293,45.898,456.055,29.297,76.172
1709251142.825,33.203,48.828,418.457,22.461,57.129
1709251142.829,-0.488,44.434,420.410,24.414,41.016
1709251142.833,15.625,40.527,433.594,38.574,41.504
1709251142.837,50.781,38.086,418.457,50.781,64.941
1709251142.841,32.227,43.945,345.215,30.273,36.621
1709251142.844,11.230,44.922,355.469,16.113,22.461
1709251142.848,17.090,39.062,415.039,30.273,29.297
1709251142.852,47.363,34.180,390.137,41.992,23.438
1709251142.856,50.781,32.715,382.812,33.691,47.363
1709251142.860,13.184,34.180,355.957,9.766,37.109
1709251142.863,-9.766,31.738,358.398,5.371,16.602
1709251142.867,13.184,29.785,378.418,29.785,43.457
1709251142.871,48.828,35.156,347.168,36.133,33.203
1709251142.875,29.785,38.086,359.375,20.996,47.363
1709251142.879,12.207,38.574,336.426,19.043,51.270
1709251142.883,38.574,41.016,309.570,36.133,42.480
1709251142.887,57.129,41.992,297.363,30.273,41.504
1709251142.890,21.973,35.645,326.172,2.930,33.691
1709251142.894,-18.066,35.645,315.430,1.465,38.086
1709251142.898,3.418,37.598,282.227,14.160,15.625
1709251142.902,40.527,37.109,304.199,26.855,27.832
1709251142.906,39.062,42.969,309.570,22.949,50.781
1709251142.923,12.207,44.434,292.969,1.953,44.922
1709251142.927,6.348,39.062,292.969,12.695,18.555
1709251142.931,40.039,35.156,298.340,31.250,17.090
1709251142.935,48.340,33.691,289.551,27.832,47.852
1709251142.939,10.254,35.645,263.184,24.414,56.641
1709251142.943,0.000,41.504,203.125,27.832,31.738
1709251142.947,28.320,30.762,229.004,41.992,4.883
1709251142.950,41.992,25.879,292.969,55.176,17.090
1709251142.954,17.090,40.039,244.141,63.965,46.875
1709251142.958,-3.906,44.922,205.566,45.410,29.785
1709251142.962,34.668,41.992,218.262,28.320,27.344
1709251142.966,82.520,40.039,204.590,36.621,33.203
1709251142.967,47.363,42.969,166.504,32.715,14.160
1709251142.971,-16.602,40.039,168.457,18.066,14.648
1709251142.975,-8.301,36.621,194.336,22.461,27.832
1709251142.979,44.434,39.551,181.152,42.480,47.363
1709251142.983,53.711,44.434,135.254,47.363,44.922
1709251142.987,12.207,46.387,104.980,42.480,11.719
1709251142.991,14.160,44.434,130.371,39.062,6.348
1709251142.994,67.383,44.922,163.086,41.016,28.809
1709251142.998,61.523,47.852,119.141,42.480,51.270
1709251143.002,12.207,54.199,25.879,28.320,-12.207
1709251143.006,-0.488,49.316,88.379,16.602,-19.531
1709251143.010,16.113,41.992,116.211,36.133,37.109
1709251143.012,35.645,44.434,45.898,46.387,19.531
1709251143.016,24.902,46.387,36.133,23.438,23.438
1709251143.020,5.371,45.898,36.133,17.090,29.297
1709251143.024,30.273,41.016,30.273,33.691,17.578
1709251143.028,57.617,39.062,21.484,44.922,31.738
1709251143.032,34.180,42.969,-8.789,45.898,-9.277
1709251143.036,8.301,38.086,14.648,36.621,0.000
1709251143.039,13.672,41.992,49.316,34.668,41.992
1709251143.043,40.527,49.316,6.836,54.688,24.414
1709251143.047,58.594,52.734,14.648,57.129,-0.977
1709251143.051,26.367,46.387,97.168,43.945,41.504
1709251143.055,-5.371,37.598,62.988,55.176,75.195
1709251143.057,30.273,38.574,37.598,66.406,23.438
1709251143.061,61.523,42.969,58.105,38.086,35.156
1709251143.065,33.691,50.781,42.969,14.648,55.664
1709251143.069,5.859,52.246,22.949,17.578,15.137
1709251143.073,28.320,47.363,36.621,20.996,-22.949
1709251143.077,41.016,48.828,71.777,25.391,-16.602
1709251143.081,-1.953,48.828,67.383,3.418,17.090
1709251143.084,-48.828,46.875,36.133,-35.645,29.785
1709251143.088,-48.340,48.340,24.414,-37.109,5.859
1709251143.092,-21.484,56.152,63.965,-30.273,4.883
1709251143.096,-41.016,66.895,9.766,-65.430,19.043
1709251143.100,-84.961,65.918,-43.457,-102.051,18.555
1709251143.102,-104.980,69.336,-8.789,-104.492,47.852
1709251143.106,-99.609,69.824,-19.531,-106.934,39.062
1709251143.110,-94.238,74.219,-75.195,-127.441,18.555
1709251143.114,-140.137,82.520,-100.586,-151.855,40.039
1709251143.118,-176.270,82.031,-102.539,-162.598,55.176
1709251143.122,-143.066,84.473,-110.352,-137.695,38.574
1709251143.126,-109.863,87.891,-97.656,-126.465,34.668
1709251143.129,-114.258,91.797,-142.578,-141.113,61.035
1709251143.133,-137.695,88.379,-138.184,-144.531,50.781
1709251143.137,-109.863,87.402,-66.895,-126.465,32.715
1709251143.141,-50.293,88.867,-94.238,-90.332,48.340
1709251143.145,-43.457,83.984,-113.770,-66.895,32.715
1709251143.147,-63.477,83.496,-86.914,-46.875,-2.930
1709251143.151,-39.062,78.613,-34.180,-27.832,24.902
1709251143.155,22.461,75.684,-16.113,-6.348,45.898
1709251143.159,36.133,72.266,23.438,13.184,28.320
1709251143.163,12.695,64.453,90.332,12.695,29.785
1709251143.167,26.367,60.059,115.234,26.855,26.367
1709251143.171,74.707,59.570,153.809,62.500,25.879
1709251143.174,92.773,57.617,187.988,73.242,26.367
1709251143.178,83.984,55.176,255.859,62.012,-2.441
1709251143.182,87.402,53.711,301.270,62.500,-6.348
1709251143.186,108.887,46.875,329.102,86.426,12.207
1709251143.190,126.465,46.875,382.324,104.004,33.691
1709251143.207,113.281,50.293,414.551,98.633,41.504
1709251143.211,87.891,48.340,435.547,93.750,33.691
1709251143.215,103.027,46.387,476.074,102.051,25.391
1709251143.219,132.324,41.016,517.578,119.629,28.809
1709251143.223,136.230,47.363,526.367,104.980,38.574
1709251143.227,108.398,51.270,529.785,80.566,2.441
1709251143.231,106.445,47.852,545.898,95.703,-17.090
1709251143.234,132.812,45.898,612.305,105.957,-5.859
1709251143.238,110.840,41.504,687.012,101.074,19.043
1709251143.242,75.195,40.039,650.879,99.121,39.062
1709251143.246,68.359,37.109,659.668,90.820,5.371
1709251143.250,92.773,33.203,724.121,95.703,34.668
1709251143.237,105.469,34.180,702.148,97.656,38.574
1709251143.241,74.707,37.109,686.035,74.219,2.930
1709251143.245,55.176,31.250,713.867,70.801,35.645
1709251143.249,88.867,25.879,755.371,88.379,67.871
1709251143.253,131.836,26.855,748.047,88.379,77.637
1709251143.257,110.352,31.250,701.660,74.707,40.527
1709251143.261,49.316,30.762,743.164,65.918,37.598
1709251143.264,62.012,26.855,782.715,84.961,51.758
1709251143.268,102.539,25.879,774.902,101.074,40.039
1709251143.272,88.867,26.855,749.023,93.750,22.949
1709251143.276,57.129,31.738,719.727,79.102,-6.348
1709251143.280,57.129,26.855,806.152,62.500,-12.695
1709251143.298,90.332,22.949,835.449,57.617,21.484
1709251143.302,96.680,20.508,788.086,63.965,17.578
1709251143.306,79.590,19.043,796.387,58.105,5.859
1709251143.310,71.289,27.832,813.477,65.430,7.812
1709251143.314,83.496,30.273,823.242,87.891,18.555
1709251143.318,104.980,31.250,779.785,83.984,33.691
1709251143.322,79.590,28.809,792.480,62.988,35.156
1709251143.325,50.293,24.414,844.727,51.758,62.500
1709251143.329,70.801,24.902,818.848,66.406,63.965
1709251143.333,91.797,27.344,794.434,81.055,41.016
1709251143.337,74.219,27.832,811.035,65.430,65.430
1709251143.341,49.805,27.832,801.270,44.922,58.594
1709251143.357,52.246,23.926,800.293,63.477,41.016
1709251143.361,79.590,20.996,797.852,65.430,29.785
1709251143.365,75.684,22.461,791.504,44.434,2.930
1709251143.369,44.434,20.020,778.809,37.598,36.133
1709251143.373,53.223,20.508,745.117,48.340,58.105
1709251143.377,90.820,23.438,730.469,74.707,24.902
1709251143.381,75.195,20.996,745.117,71.777,36.133
1709251143.384,36.133,21.484,745.117,58.105,57.617
1709251143.388,34.668,24.414,707.520,66.406,36.133
1709251143.392,73.730,22.461,687.500,83.984,19.531
1709251143.396,83.984,20.020,744.629,67.383,36.621
1709251143.400,50.781,22.949,709.961,47.852,41.504
1709251143.387,25.391,26.367,665.039,44.922,28.320
1709251143.391,51.270,26.855,681.152,45.410,33.691
1709251143.395,81.055,25.391,680.664,51.758,41.504
1709251143.399,50.781,25.391,664.062,47.363,42.480
1709251143.403,20.508,29.297,613.770,38.574,10.254
1709251143.407,23.438,27.344,626.953,37.598,-0.488
1709251143.411,47.852,23.926,667.480,36.133,23.438
1709251143.414,48.340,30.273,645.020,31.250,34.668
1709251143.418,31.250,35.156,624.023,32.715,29.297
1709251143.422,35.156,37.109,635.254,31.738,30.273
1709251143.426,53.711,39.062,622.559,33.691,22.949
1709251143.430,63.477,38.574,605.957,33.203,35.156
1709251143.433,33.691,43.457,566.895,25.391,21.484
1709251143.437,10.254,41.504,591.309,21.484,3.906
1709251143.441,45.410,35.156,634.277,27.832,11.230
1709251143.445,70.312,39.551,589.355,47.363,9.277
1709251143.449,39.551,41.504,564.941,40.039,34.668
1709251143.453,13.184,39.062,576.660,26.855,52.734
1709251143.457,35.156,36.621,601.074,45.410,28.809
1709251143.460,59.082,35.156,599.121,50.781,18.066
1709251143.464,42.480,36.133,556.641,41.504,14.160
1709251143.468,19.531,31.738,603.027,21.973,14.160
1709251143.472,23.926,24.902,638.184,27.344,18.555
1709251143.476,35.156,24.902,598.633,58.105,38.574
1709251143.477,28.320,24.902,571.289,52.246,63.477
1709251143.481,7.324,25.879,552.246,39.062,26.367
1709251143.485,4.883,28.320,555.664,42.969,19.531
1709251143.489,43.457,28.320,558.105,49.316,29.297
1709251143.493,50.781,29.785,543.457,40.039,19.531
1709251143.497,19.531,33.691,511.230,26.855,19.043
1709251143.501,11.230,36.621,538.574,7.324,24.902
1709251143.504,40.039,40.039,512.695,13.184,24.902
1709251143.508,55.664,40.527,492.676,24.414,-18.066
1709251143.512,24.414,37.598,550.293,15.137,-5.859
1709251143.516,11.230,41.016,509.277,30.273,33.203
1709251143.520,28.809,42.969,494.141,41.504,35.645
1709251143.522,46.387,41.992,496.094,32.227,60.547
1709251143.526,41.992,45.898,464.355,32.715,59.570
1709251143.530,7.812,50.293,433.594,24.902,46.875
1709251143.534,8.301,50.293,436.035,32.715,40.039
1709251143.538,50.293,49.805,443.848,44.434,32.715
1709251143.542,58.594,49.316,395.020,21.973,25.391
1709251143.546,29.297,50.781,379.395,13.672,14.648
1709251143.549,18.555,50.781,392.090,18.555,12.207
1709251143.553,42.480,48.340,438.477,24.414,23.438
1709251143.557,59.570,48.828,424.805,35.156,34.668
1709251143.561,38.086,53.711,369.629,29.785,29.297
1709251143.565,13.184,55.664,382.812,16.113,18.066
1709251143.568,31.250,47.852,433.105,24.902,33.203
1709251143.572,68.359,46.387,418.945,39.551,54.199
1709251143.576,52.246,54.688,367.676,43.945,34.180
1709251143.580,7.324,54.688,391.113,30.762,16.113
1709251143.584,10.254,51.270,445.312,22.949,48.828
1709251143.588,49.805,46.387,415.039,28.809,14.648
1709251143.592,52.734,42.969,394.043,33.203,-23.438
1709251143.595,17.090,41.504,435.059,22.461,10.742
1709251143.599,5.371,37.598,483.398,21.484,40.039
1709251143.603,43.457,39.062,469.238,42.969,49.805
1709251143.607,57.129,43.945,460.449,39.551,61.035
1709251143.611,33.691,49.805,465.332,17.578,36.621
1709251143.613,25.879,49.316,487.305,12.207,23.926
1709251143.617,53.223,48.340,491.211,27.344,20.996
1709251143.621,76.172,46.387,499.512,50.781,38.086
1709251143.625,47.852,51.270,518.066,49.805,64.941
1709251143.629,-0.488,58.105,500.488,13.184,51.270
1709251143.633,13.672,56.152,488.281,12.207,22.461
1709251143.637,48.340,57.617,492.676,27.832,5.859
1709251143.640,34.180,59.570,544.434,21.484,21.973
1709251143.644,15.137,55.664,567.383,23.438,46.875
1709251143.648,39.062,54.199,534.180,41.504,56.152
1709251143.652,68.359,54.688,532.227,43.945,55.664
1709251143.656,66.406,51.758,531.250,21.484,47.852
1709251143.672,26.855,54.199,518.066,-1.953,33.691
1709251143.676,11.719,56.641,518.066,5.371,7.812
1709251143.680,50.781,49.805,537.598,33.691,8.301
1709251143.684,63.477,46.387,541.016,43.457,46.875
1709251143.688,35.645,54.688,498.535,29.785,36.621
1709251143.692,19.043,59.570,455.566,27.344,-1.953
1709251143.696,46.875,52.734,531.250,41.992,1.953
1709251143.699,56.152,46.387,589.355,36.133,32.227
1709251143.703,30.273,51.270,534.668,11.230,51.758
1709251143.707,9.277,55.664,512.695,-0.977,38.574
1709251143.711,21.484,49.316,539.551,15.137,20.020
1709251143.715,52.246,43.457,549.316,36.133,52.246
1709251143.717,43.945,47.363,502.930,30.273,66.895
1709251143.721,12.695,51.270,486.328,18.066,27.832
1709251143.725,2.441,46.387,528.809,21.973,38.574
1709251143.729,47.852,41.504,530.273,56.641,48.828
1709251143.733,74.219,47.363,488.770,53.223,16.113
1709251143.737,27.344,52.734,479.492,17.090,14.648
1709251143.741,5.859,46.387,516.113,15.137,56.152
1709251143.744,35.156,37.598,505.371,24.414,13.184
1709251143.748,56.152,36.621,487.793,29.785,-5.859
1709251143.752,32.715,45.410,452.637,26.367,-11.230
1709251143.756,3.906,40.039,509.277,24.414,-28.809
1709251143.760,34.180,31.738,559.082,41.992,17.578
1709251143.763,59.570,31.738,510.254,41.016,31.250
1709251143.767,34.180,35.156,496.094,28.809,29.785
1709251143.771,23.438,41.504,500.488,23.926,38.574
1709251143.775,32.715,42.480,502.441,32.715,37.598
1709251143.779,52.734,39.062,480.469,52.246,24.902
1709251143.783,44.434,41.992,456.543,41.504,4.395
1709251143.787,10.254,42.969,483.887,21.973,16.602
1709251143.790,13.184,37.598,517.578,32.715,32.227
1709251143.794,57.617,38.574,474.121,47.363,12.207
1709251143.798,62.500,41.992,487.305,36.621,19.531
1709251143.802,33.691,42.480,513.672,17.578,44.922
1709251143.806,28.320,41.504,491.211,26.855,39.551
1709251143.807,47.852,39.062,528.809,45.898,44.922
1709251143.811,62.012,40.039,539.551,48.340,62.012
1709251143.815,30.762,42.969,520.508,34.180,70.312
1709251143.819,5.859,41.992,494.629,19.531,35.645
1709251143.823,36.133,40.039,511.230,41.504,20.508
1709251143.827,56.641,37.109,502.930,48.340,20.508
1709251143.831,37.109,32.227,503.418,19.043,11.230
1709251143.834,10.254,34.668,491.699,16.602,22.949
1709251143.838,12.695,34.180,469.238,37.598,0.977
1709251143.842,42.969,28.809,553.711,32.715,12.695
1709251143.846,49.316,31.250,526.367,21.484,19.531
1709251143.850,19.043,34.180,471.680,20.020,3.418
1709251143.853,21.484,32.715,518.555,24.902,40.039
1709251143.857,52.246,32.227,509.766,53.223,37.109
1709251143.861,57.129,34.180,505.371,48.340,25.391
1709251143.865,34.180,38.086,502.441,20.020,46.875
1709251143.869,20.020,34.668,500.488,28.320,37.109
1709251143.873,40.527,34.180,530.762,48.340,38.574
1709251143.877,57.617,36.621,519.531,38.086,34.668
1709251143.880,50.293,37.598,474.609,22.949,-7.812
1709251143.884,29.785,39.551,515.137,29.785,-8.301
1709251143.888,39.551,37.598,578.125,52.246,47.852
1709251143.892,64.941,35.645,521.484,59.082,74.219
1709251143.896,34.180,34.668,497.070,33.691,69.336
1709251143.897,-6.348,36.133,500.977,21.484,23.438
1709251143.901,13.184,30.762,534.180,33.203,27.832
1709251143.905,52.734,33.691,530.762,41.016,68.359
1709251143.909,48.828,32.227,502.441,29.785,39.551
1709251143.913,18.066,28.320,504.395,17.578,17.090
1709251143.917,23.926,37.109,519.531,17.090,7.812
1709251143.921,47.363,38.086,540.527,35.156,24.902
1709251143.924,59.570,38.086,500.977,42.969,19.531
1709251143.928,19.043,29.785,555.176,42.480,27.344
1709251143.932,-6.836,27.344,592.285,39.062,45.410
1709251143.936,35.156,33.691,555.664,25.391,31.738
1709251143.940,50.781,38.086,570.312,25.391,42.969
1709251143.942,28.320,41.504,570.312,10.254,47.363
1709251143.946,3.906,44.434,547.852,-12.695,22.949
1709251143.950,18.066,39.062,567.383,-1.465,11.719
1709251143.954,52.246,33.203,592.285,24.902,40.039
1709251143.958,55.176,36.133,547.852,23.438,16.602
1709251143.962,14.648,39.062,532.227,5.371,-14.648
1709251143.966,11.719,37.109,555.176,22.461,37.109
1709251143.969,52.246,33.691,563.477,33.691,43.945
1709251143.973,52.734,28.320,596.191,34.668,3.418
1709251143.977,19.531,30.273,586.426,8.301,20.020
1709251143.981,2.930,33.691,575.684,-5.859,21.973
1709251143.985,18.066,31.250,609.375,13.672,30.762
1709251143.987,34.180,24.902,592.773,22.461,18.555
1709251143.991,25.879,18.066,543.457,21.973,18.555
1709251143.995,21.484,25.879,496.582,3.418,52.246
1709251143.999,29.785,30.273,437.988,13.672,69.824
1709251144.003,39.551,28.809,297.363,45.898,63.965
1709251144.007,36.621,37.598,90.332,20.996,33.203
1709251144.011,20.508,40.039,-141.113,-10.742,-3.418
1709251144.014,30.273,31.738,-445.312,10.254,-1.465
1709251144.018,49.316,27.344,-835.449,29.297,22.949
1709251144.022,48.340,35.645,-983.398,19.043,15.625
1709251144.026,32.227,38.086,-959.961,2.441,3.906
1709251144.030,17.090,28.320,-971.191,11.230,11.719
1709251144.033,32.227,29.297,-971.680,34.180,35.156
1709251144.037,41.016,36.133,-971.191,46.875,8.789
1709251144.041,28.809,39.551,-971.191,25.391,-15.137
1709251144.045,21.973,32.715,-971.191,12.695,10.254
1709251144.049,47.363,21.484,-971.191,48.828,35.645
1709251144.053,62.012,30.762,-971.191,53.223,-6.836
1709251144.057,31.250,40.039,-972.656,23.926,-24.414
1709251144.060,6.348,35.156,-966.797,5.371,14.648
1709251144.064,34.668,38.086,-972.168,24.902,28.320
1709251144.068,71.777,43.945,-957.520,47.363,5.859
1709251144.072,49.316,40.527,-789.062,26.367,-30.762
1709251144.076,20.020,41.504,-588.379,15.625,0.000
1709251144.093,31.738,48.340,-408.691,28.320,40.039
1709251144.097,50.293,44.922,-131.836,40.527,41.016
1709251144.101,43.945,46.387,239.746,40.039,30.762
1709251144.105,15.137,48.340,678.223,31.250,25.879
1709251144.109,30.762,47.363,976.562,20.996,26.367
1709251144.113,69.336,51.270,998.047,21.973,0.488
1709251144.117,81.055,49.805,992.188,27.832,-19.043
1709251144.120,45.898,48.340,-999.023,23.926,0.488
1709251144.124,7.812,48.340,999.512,32.227,-12.207
1709251144.128,31.738,43.457,999.512,52.246,-26.367
1709251144.132,53.223,40.039,999.512,38.086,26.855
1709251144.136,35.156,41.504,999.512,18.066,51.270
1709251144.137,10.254,32.715,999.512,8.301,27.832
1709251144.141,32.227,31.250,999.512,22.461,33.691
1709251144.145,65.918,35.156,999.512,44.922,46.875
1709251144.149,51.758,39.551,999.512,29.297,13.184
1709251144.153,25.391,33.691,999.512,6.836,-6.348
1709251144.157,29.785,20.996,999.512,14.648,2.441
1709251144.161,34.180,31.738,999.512,17.090,-18.066
1709251144.164,50.293,42.480,999.512,12.695,0.000
1709251144.168,46.875,44.922,999.512,4.395,7.812
1709251144.172,8.789,40.527,999.512,10.254,-11.230
1709251144.176,20.508,27.344,999.512,31.738,26.855
1709251144.180,38.086,29.785,999.512,46.875,48.340
1709251144.182,10.254,35.156,999.512,40.527,40.039
1709251144.186,7.812,30.762,999.512,26.855,45.898
1709251144.190,40.527,35.645,999.512,28.809,27.832
1709251144.194,55.176,37.109,999.512,41.016,12.695
1709251144.198,49.805,38.574,999.512,32.715,3.906
1709251144.202,6.836,37.598,999.512,19.531,25.879
1709251144.206,-5.371,32.227,999.512,20.996,34.668
1709251144.209,34.180,29.297,999.512,50.293,26.855
1709251144.213,35.645,23.926,999.512,47.852,13.672
1709251144.217,7.324,20.996,999.512,33.203,-3.906
1709251144.221,26.855,24.902,999.512,47.363,11.230
1709251144.225,67.871,29.297,999.512,36.133,20.020
1709251144.228,54.688,29.297,999.512,16.113,34.668
1709251144.232,13.672,26.855,999.512,4.395,3.418
1709251144.236,-11.719,21.484,999.512,8.301,-1.953
1709251144.240,27.344,18.066,999.512,27.344,32.227
1709251144.244,71.777,16.113,999.512,32.715,39.062
1709251144.248,42.969,22.949,999.512,11.230,34.180
1709251144.252,-4.395,24.414,999.512,6.836,17.090
1709251144.255,2.930,19.043,999.512,26.855,8.301
1709251144.259,33.203,17.578,999.512,17.090,0.000
1709251144.263,15.137,15.137,999.512,29.297,29.785
1709251144.267,-11.230,13.672,999.512,33.203,73.730
1709251144.271,-0.488,13.672,999.512,18.066,62.012
1709251144.272,26.855,12.207,999.512,28.809,47.852
1709251144.276,24.902,5.371,999.512,6.348,32.227
1709251144.280,-11.230,10.742,999.512,-5.859,27.832
1709251144.284,-21.484,12.207,999.512,18.066,32.715
1709251144.288,4.395,5.371,999.512,57.617,44.434
1709251144.292,25.391,9.277,999.512,67.871,53.223
1709251144.296,10.742,6.836,999.512,32.715,50.293
1709251144.299,-4.883,20.996,999.512,-13.184,4.883
1709251144.303,18.066,26.367,999.512,-37.598,-16.602
1709251144.307,28.809,18.066,999.512,-18.066,29.785
1709251144.311,14.648,21.973,999.512,-11.230,28.809
1709251144.315,-7.812,20.508,999.512,-28.320,19.043
1709251144.318,-6.348,18.066,999.512,-10.742,47.852
1709251144.322,23.438,19.531,999.512,11.230,52.246
1709251144.326,16.602,17.090,999.512,10.742,36.133
1709251144.330,-1.465,14.160,999.512,-1.465,48.340
1709251144.334,4.883,18.066,999.512,-3.418,42.480
1709251144.338,13.184,22.461,999.512,8.301,31.738
1709251144.342,9.277,24.902,999.512,12.207,24.414
1709251144.345,9.277,18.066,999.512,8.301,4.883
1709251144.349,10.742,7.812,999.512,26.367,31.250
1709251144.353,37.598,15.625,999.512,31.738,30.273
1709251144.357,39.551,35.156,999.512,7.812,23.438
1709251144.361,16.602,37.598,999.512,10.742,40.039
1709251144.362,14.648,32.227,999.512,14.648,46.875
1709251144.366,29.785,28.809,999.512,19.043,33.203
1709251144.370,48.828,25.391,999.512,22.461,31.738
1709251144.374,23.438,27.344,999.512,5.859,30.762
1709251144.378,-16.602,26.367,999.512,5.371,24.414
1709251144.382,-7.324,24.414,999.512,27.832,32.227
1709251144.386,34.180,25.391,999.512,43.945,24.902
1709251144.389,28.809,23.926,999.512,27.344,3.418
1709251144.393,-19.043,26.855,999.512,-16.602,23.438
1709251144.397,-4.883,22.461,999.512,-22.461,44.434
1709251144.401,47.852,18.066,999.512,14.160,37.598
1709251144.405,62.988,20.996,999.512,26.855,37.598
1709251144.423,7.812,20.996,999.512,11.719,54.199
1709251144.427,-20.508,22.949,999.512,4.883,49.805
1709251144.431,19.531,17.578,999.512,30.273,43.457
1709251144.435,47.363,22.461,999.512,39.062,24.902
1709251144.439,27.832,28.809,999.512,14.160,21.484
1709251144.443,-2.441,29.297,999.512,18.066,7.324
1709251144.447,-0.977,21.973,999.512,27.832,-2.441
1709251144.450,17.090,11.230,999.512,24.902,7.324
1709251144.454,7.812,16.602,999.512,8.301,17.578
1709251144.458,-9.277,23.438,999.512,5.371,-0.977
1709251144.462,14.160,20.996,999.512,33.203,14.648
1709251144.466,39.062,15.137,999.023,37.598,20.508
1709251144.467,20.508,12.207,-999.512,25.879,16.113
1709251144.471,7.324,15.137,995.117,22.461,8.789
1709251144.475,21.973,15.137,992.188,28.320,4.883
1709251144.479,27.344,4.883,980.957,45.410,70.801
1709251144.483,24.414,-13.672,875.000,45.898,75.684
1709251144.487,-0.977,-29.297,799.316,-2.441,17.578
1709251144.491,-24.414,-21.484,833.008,-11.719,23.438
1709251144.494,3.906,0.000,852.539,23.926,6.836
1709251144.498,53.223,4.395,821.289,24.902,-0.977
1709251144.502,43.457,11.230,727.539,21.973,0.488
1709251144.506,-22.461,13.672,780.762,10.742,0.000
1709251144.510,-20.996,5.371,828.613,24.902,43.945
1709251144.512,17.578,11.719,696.777,44.922,18.555
1709251144.516,9.766,13.184,645.508,27.832,21.484
1709251144.520,-9.766,8.789,666.992,20.020,43.945
1709251144.524,5.371,2.930,645.996,25.391,21.484
1709251144.528,22.461,-6.836,619.141,36.133,10.254
1709251144.532,21.973,0.488,605.469,20.508,32.715
1709251144.536,-10.254,6.836,594.238,10.254,31.738
1709251144.539,-11.719,-1.953,614.258,19.043,52.734
1709251144.543,19.531,-2.930,566.895,32.227,40.039
1709251144.547,5.859,-2.441,544.922,28.320,19.531
1709251144.551,-20.020,-4.395,591.797,0.000,26.367
1709251144.555,-20.996,-0.977,562.500,11.230,49.805
1709251144.559,1.953,-3.906,504.883,46.875,44.434
1709251144.563,10.254,-8.301,491.211,42.969,24.414
1709251144.567,-5.859,-6.836,496.094,12.695,21.973
1709251144.571,-24.414,-4.395,454.590,-5.859,13.672
1709251144.575,-6.836,-4.395,458.496,17.090,25.879
1709251144.579,44.434,-4.395,458.984,29.297,24.414
1709251144.583,29.785,-2.930,422.852,5.371,21.973
1709251144.586,-26.855,1.465,396.973,9.766,23.926
1709251144.590,-19.531,7.324,370.117,23.438,10.742
1709251144.594,20.020,3.906,435.059,34.180,14.160
1709251144.598,30.273,1.953,425.781,50.781,33.691
1709251144.602,15.625,2.930,323.730,31.738,13.184
1709251144.602,-14.160,0.977,352.051,9.277,40.527
1709251144.606,-7.324,4.883,396.973,21.484,50.293
1709251144.610,38.086,5.371,359.375,13.672,30.273
1709251144.614,10.254,6.836,306.152,8.301,28.320
1709251144.618,-29.297,6.836,294.434,4.883,11.719
1709251144.622,1.465,5.859,320.801,25.879,18.066
1709251144.626,44.922,1.953,339.844,38.574,27.832
1709251144.629,34.668,-0.488,261.230,40.039,-3.418
1709251144.633,-13.672,5.371,239.258,33.691,-35.645
1709251144.637,-2.930,2.441,384.277,10.254,11.230
1709251144.641,28.809,-1.465,351.074,25.391,30.273
1709251144.645,15.625,0.977,271.484,21.484,8.789
1709251144.647,-3.418,9.766,282.227,3.906,33.203
1709251144.651,11.230,12.695,288.574,17.578,49.805
1709251144.655,38.574,12.207,269.531,44.434,49.316
1709251144.659,34.180,14.648,244.141,36.133,49.316
1709251144.663,-13.184,12.695,243.164,16.113,51.758
1709251144.667,-27.344,12.695,219.238,16.602,44.434
1709251144.671,21.973,10.254,242.188,33.691,64.453
1709251144.674,57.129,14.160,179.199,46.387,20.020
1709251144.678,20.508,23.926,207.031,27.344,0.000
1709251144.682,7.812,17.090,289.062,11.719,48.340
1709251144.686,30.273,13.184,217.773,36.133,45.410
1709251144.690,35.645,18.066,197.754,43.945,24.414
1709251144.693,20.020,17.578,218.262,29.297,41.992
1709251144.697,1.465,12.695,182.617,33.691,30.273
1709251144.701,10.254,7.812,167.480,62.012,10.742
1709251144.705,30.762,9.277,189.941,55.176,22.461
1709251144.709,37.109,12.207,181.152,20.996,33.203
1709251144.713,10.254,10.742,138.672,9.277,31.738
1709251144.717,-10.742,5.859,136.719,10.254,9.277
1709251144.720,14.648,9.766,201.172,25.391,17.090
1709251144.724,42.480,11.719,205.566,24.902,56.152
1709251144.728,3.906,13.672,134.277,18.066,50.293
1709251144.732,-17.090,20.020,81.055,24.902,22.461
1709251144.736,6.836,17.578,140.137,24.902,3.906
1709251144.737,24.414,16.113,233.398,24.414,34.180
1709251144.741,14.648,20.020,171.875,31.738,53.711
1709251144.745,-14.648,18.066,133.301,29.297,49.316
1709251144.749,11.719,16.602,172.852,31.738,36.621
1709251144.753,54.688,15.625,179.199,26.367,42.480
1709251144.757,38.086,12.695,113.770,29.297,47.852
1709251144.761,-7.812,9.277,65.918,21.484,23.926
1709251144.764,-12.695,8.789,165.527,15.137,37.598
1709251144.768,23.438,9.277,208.984,35.645,55.176
1709251144.772,34.180,16.602,110.352,32.227,22.461
1709251144.776,0.977,21.973,115.234,21.484,20.020
1709251144.780,-1.465,16.602,168.945,20.508,69.336
1709251144.783,50.781,16.602,150.391,24.902,79.102
1709251144.787,69.824,20.508,82.520,37.109,33.203
1709251144.791,21.484,14.648,77.637,32.715,5.859
1709251144.795,-13.184,8.789,154.785,14.648,47.363
1709251144.799,18.555,10.254,144.531,28.809,53.223
1709251144.803,57.129,16.113,55.664,48.828,-10.254
1709251144.807,31.250,20.508,69.824,33.203,-31.250
1709251144.810,-12.695,18.555,150.879,18.555,2.441
1709251144.814,3.906,18.555,150.391,39.551,36.621
1709251144.818,51.758,19.043,118.652,40.527,43.945
1709251144.822,38.574,22.949,117.676,17.578,42.480
1709251144.826,-11.719,23.438,113.281,18.555,31.250
1709251144.842,-11.719,22.461,102.051,32.227,20.508
1709251144.846,31.250,23.438,125.977,41.992,43.457
1709251144.850,48.828,24.902,110.352,20.020,43.945
1709251144.854,17.578,24.414,87.402,2.441,35.156
1709251144.858,11.719,24.414,85.938,14.160,30.762
1709251144.862,35.645,20.996,89.844,38.574,13.672
1709251144.866,35.156,14.160,117.676,29.785,10.254
1709251144.869,6.836,16.113,142.578,1.465,20.020
1709251144.873,-12.207,20.508,91.309,12.207,27.832
1709251144.877,5.859,18.066,71.289,50.293,16.113
1709251144.881,40.039,14.648,149.414,39.062,27.832
1709251144.885,31.738,14.648,118.652,26.855,39.062
1709251144.887,6.836,20.996,57.617,12.207,19.531
1709251144.891,18.066,13.672,102.539,10.742,41.992
1709251144.895,29.297,8.301,130.371,57.129,32.227
1709251144.899,20.020,15.137,90.820,49.805,8.789
1709251144.903,12.207,16.602,68.359,19.043,26.855
1709251144.907,2.441,9.766,93.750,29.297,65.430
1709251144.911,28.320,0.977,111.328,59.570,62.500
1709251144.914,42.969,6.836,109.863,45.410,50.781
1709251144.918,16.113,15.137,43.945,30.273,45.898
1709251144.922,-3.418,17.090,45.410,17.090,12.207
1709251144.926,16.113,9.277,166.504,5.371,26.855
1709251144.930,40.527,6.348,121.582,21.484,37.109
1709251144.932,9.277,14.160,60.059,25.879,6.836
1709251144.936,-9.766,15.625,96.680,14.160,18.555
1709251144.940,14.160,16.602,125.000,22.461,46.875
1709251144.944,37.109,18.555,98.145,34.180,47.852
1709251144.948,27.344,18.066,58.105,24.414,26.367
1709251144.952,-1.953,16.602,61.035,20.508,28.809
1709251144.956,7.324,11.230,84.961,29.297,23.438
1709251144.959,27.344,9.766,100.098,37.598,24.902
1709251144.963,20.996,10.742,60.059,21.973,33.691
1709251144.967,-7.812,12.207,105.469,15.625,27.832
1709251144.971,-17.578,15.625,165.527,36.621,37.598
1709251144.975,11.719,13.672,111.816,60.059,53.711
1709251144.977,30.762,15.137,72.754,43.457,33.691
1709251144.981,3.418,17.578,107.910,14.160,30.762
1709251144.985,-23.926,15.137,100.586,4.883,36.133
1709251144.989,15.625,11.230,95.215,20.508,18.066
1709251144.993,41.016,9.766,105.957,42.480,34.180
1709251144.997,1.953,9.277,81.055,49.316,41.992
1709251145.001,-26.367,15.137,79.102,25.879,24.902
1709251145.004,7.812,18.555,59.082,21.484,-2.930
1709251145.008,45.410,15.137,95.215,21.484,24.414
1709251145.012,28.320,15.625,137.207,3.906,47.852
1709251145.016,0.000,20.996,87.891,9.277,22.949
1709251145.020,8.301,16.602,88.867,23.926,42.969
1709251145.023,28.320,13.184,93.750,36.621,47.363
1709251145.027,35.156,20.020,94.238,30.762,21.484
1709251145.031,19.043,26.367,72.266,26.367,38.574
1709251145.035,3.906,12.695,61.035,21.484,41.016
1709251145.039,17.090,7.324,116.699,35.156,48.340
1709251145.043,19.043,20.508,96.680,45.898,62.988
1709251145.047,-7.812,18.066,32.227,27.832,16.602
1709251145.050,-13.672,12.695,33.203,16.113,-3.418
1709251145.054,15.625,12.695,128.906,46.387,30.273
1709251145.058,32.715,15.137,148.438,44.922,51.758
1709251145.062,11.230,16.602,56.641,17.090,31.250
1709251145.066,-12.695,20.508,62.500,11.230,31.250
1709251145.067,-5.371,18.555,122.559,18.066,32.715
1709251145.071,22.461,15.137,115.234,29.297,20.508
1709251145.075,23.438,18.555,83.008,27.344,57.617
1709251145.079,-2.441,21.973,61.035,17.578,54.199
1709251145.083,4.395,15.137,81.055,23.438,10.742
1709251145.087,27.344,9.277,94.238,52.246,14.648
1709251145.091,22.461,19.531,44.434,54.199,15.137
1709251145.094,-1.953,27.832,39.062,40.039,7.812
1709251145.098,8.789,21.973,141.602,24.414,25.879
1709251145.102,45.410,10.254,143.555,36.621,45.898
1709251145.106,47.852,9.277,72.266,36.133,28.809
1709251145.110,19.043,8.301,56.641,19.043,2.930
1709251145.112,-3.418,0.977,96.680,19.043,28.320
1709251145.116,29.297,9.277,96.191,29.785,41.992
1709251145.120,66.895,18.066,74.219,44.434,22.949
1709251145.124,44.922,19.043,95.703,54.199,51.758
1709251145.128,0.000,24.902,85.449,47.852,65.918
1709251145.132,10.742,22.949,73.242,20.508,59.570
1709251145.136,53.223,24.414,40.039,25.879,20.996
1709251145.139,61.035,30.273,85.938,25.879,5.371
1709251145.143,24.902,27.832,131.348,2.441,22.949
1709251145.147,21.484,29.297,73.730,17.090,24.414
1709251145.151,67.871,30.273,77.148,40.039,39.551
1709251145.155,75.195,28.809,88.379,25.879,22.949
1709251145.172,28.320,27.344,68.848,31.250,20.508
1709251145.176,1.953,26.367,57.617,25.879,38.086
1709251145.180,23.438,22.949,81.543,39.551,40.527
1709251145.184,72.754,21.973,88.379,42.969,34.668
1709251145.188,59.082,22.949,39.062,23.438,-1.953
1709251145.192,3.906,23.926,-2.441,29.297,-23.438
1709251145.196,29.297,20.020,71.777,40.527,11.230
1709251145.199,65.918,8.789,141.602,34.180,42.480
1709251145.203,47.852,4.883,72.754,12.207,37.598
1709251145.207,8.301,17.090,-12.695,11.230,-21.973
1709251145.211,7.324,23.438,68.359,30.273,9.766
1709251145.215,46.875,22.949,131.348,48.340,39.062
1709251145.217,58.594,23.438,63.477,54.199,22.949
1709251145.221,35.156,23.438,37.109,44.434,14.648
1709251145.225,15.137,20.508,77.637,34.668,21.973
1709251145.229,48.828,15.625,93.750,22.461,31.250
1709251145.233,79.102,20.020,57.617,15.625,16.113
1709251145.237,34.180,20.508,35.645,11.230,17.578
1709251145.241,4.395,16.602,48.340,12.695,18.066
1709251145.244,30.762,20.508,87.402,34.668,17.578
1709251145.248,55.176,23.438,66.895,41.992,31.738
1709251145.252,41.016,25.879,-4.395,26.367,-1.465
1709251145.256,20.508,23.438,74.707,11.719,-8.301
1709251145.260,31.738,24.414,109.375,33.691,47.852
1709251145.263,52.734,25.391,29.297,60.547,22.949
1709251145.267,33.203,22.949,45.410,43.945,-2.930
1709251145.271,8.789,27.344,74.707,21.484,-10.254
1709251145.275,37.109,26.367,74.219,30.273,-14.648
1709251145.279,82.520,24.414,73.242,47.363,3.906
1709251145.283,90.332,28.320,46.875,39.062,-4.883
1709251145.287,38.574,24.902,58.105,39.551,6.836
1709251145.290,10.254,19.531,104.004,34.180,32.227
1709251145.294,54.199,21.484,68.848,36.621,43.945
1709251145.298,72.754,20.020,42.480,42.480,34.668
1709251145.302,40.039,20.508,95.215,32.227,31.738
1709251145.306,28.809,22.461,68.848,34.180,35.645
1709251145.307,52.246,19.531,61.035,41.016,20.996
1709251145.311,72.266,24.414,72.754,32.715,14.648
1709251145.315,54.199,33.203,38.574,22.461,14.648
1709251145.319,28.809,29.297,26.855,21.484,35.645
1709251145.323,41.992,20.508,56.152,44.434,42.969
1709251145.327,62.988,22.461,77.148,62.500,43.457
1709251145.331,32.715,22.461,59.570,50.781,42.969
1709251145.334,0.977,19.043,26.367,50.293,24.902
1709251145.338,21.484,19.531,21.484,70.801,5.859
1709251145.342,56.641,18.066,102.539,59.570,13.672
1709251145.346,66.406,21.484,97.168,43.457,31.250
1709251145.350,30.273,28.320,11.230,32.227,19.043
1709251145.352,15.137,27.344,39.551,2.441,46.387
1709251145.356,58.105,26.855,91.309,11.719,93.262
1709251145.360,85.938,29.785,49.316,26.367,80.566
1709251145.364,45.898,28.320,5.859,19.531,43.945
1709251145.368,3.418,31.738,37.598,17.578,47.363
1709251145.372,26.367,25.879,39.062,38.086,33.203
1709251145.376,64.941,24.414,44.434,50.293,26.367
1709251145.379,66.895,37.598,2.930,36.133,27.344
1709251145.383,44.922,33.691,-8.789,18.555,-4.395
1709251145.387,47.363,26.855,113.770,12.695,34.180
1709251145.391,51.270,25.391,88.867,30.762,60.547
1709251145.395,33.691,23.926,28.809,37.109,30.762
1709251145.397,20.020,24.902,31.250,26.855,-2.930
1709251145.401,14.160,24.414,73.242,32.715,36.621
1709251145.405,50.293,24.414,70.312,60.547,72.754
1709251145.409,64.941,20.996,33.691,60.059,44.922
1709251145.413,16.113,20.020,33.203,50.293,24.902
1709251145.417,-8.301,20.020,28.809,54.688,18.555
1709251145.421,30.273,21.484,59.082,64.453,37.598
1709251145.424,73.242,27.344,39.062,62.012,21.484
1709251145.428,53.711,20.508,51.270,37.598,16.113
1709251145.432,7.324,10.254,97.656,20.508,54.688
1709251145.436,15.625,14.160,73.730,41.504,57.617
1709251145.440,56.152,14.160,61.035,59.082,50.781
1709251145.442,49.805,13.184,88.379,28.809,62.500
1709251145.446,10.254,20.508,63.477,10.254,62.012
1709251145.450,22.949,19.531,51.270,28.320,46.387
1709251145.454,71.289,17.090,69.824,51.270,36.621
1709251145.458,74.707,20.020,68.359,47.363,38.574
1709251145.462,47.363,26.855,42.969,27.832,35.156
1709251145.466,38.086,35.156,20.508,32.227,36.621
1709251145.469,48.340,30.762,62.012,54.688,30.762
1709251145.473,54.688,30.762,114.746,41.504,30.762
1709251145.477,46.387,43.945,56.641,33.691,14.648
1709251145.481,28.809,45.410,49.316,34.180,-0.977
1709251145.485,51.270,42.480,68.359,43.457,7.324
1709251145.503,69.824,42.480,75.684,49.805,24.414
1709251145.507,38.574,41.992,53.711,27.832,22.949
1709251145.511,-4.883,39.062,27.344,14.648,-9.766
1709251145.515,9.766,39.551,95.215,34.668,11.230
1709251145.519,44.922,41.504,88.379,50.781,41.016
1709251145.523,26.367,44.434,27.832,49.316,35.645
1709251145.527,6.348,45.410,3.418,53.223,27.832
1709251145.530,10.742,44.434,72.754,48.340,2.930
1709251145.534,27.832,41.992,130.371,54.199,43.457
1709251145.538,40.527,44.434,48.828,41.016,55.664
1709251145.542,27.832,51.758,19.531,12.207,28.809
1709251145.546,27.832,44.922,54.199,8.789,18.066
1709251145.547,54.688,44.434,89.355,31.250,27.832
1709251145.551,60.059,54.688,65.918,37.598,54.199
1709251145.555,21.484,55.664,20.508,15.625,25.879
1709251145.559,12.207,50.781,64.941,16.113,14.648
1709251145.563,38.086,47.363,89.355,49.316,45.898
1709251145.567,47.852,50.293,26.367,69.336,29.785
1709251145.571,29.297,53.711,21.973,34.668,-1.953
1709251145.574,5.859,49.316,71.289,25.879,15.625
1709251145.578,28.320,46.387,90.332,45.898,49.316
1709251145.582,58.105,48.828,13.672,40.039,23.926
1709251145.586,29.785,48.828,-4.395,15.625,-14.648
1709251145.590,0.977,44.922,97.656,5.859,33.203
1709251145.593,18.066,42.480,79.102,22.949,42.480
1709251145.597,41.504,40.039,56.152,41.504,23.926
1709251145.601,46.875,38.574,55.176,30.762,26.855
1709251145.605,10.742,41.016,46.875,15.137,30.273
1709251145.609,-1.465,45.898,54.688,31.250,53.223
1709251145.613,37.109,46.387,56.152,43.945,73.730
1709251145.617,51.758,42.969,57.129,43.457,71.777
1709251145.620,25.879,49.316,45.898,42.480,45.410
1709251145.624,13.184,49.316,39.062,37.598,35.645
1709251145.628,27.832,41.992,7.812,25.391,1.465
1709251145.632,71.777,45.898,77.637,31.250,12.695
1709251145.636,63.477,48.828,105.957,38.086,40.039
1709251145.637,22.949,51.270,24.902,34.668,13.672
1709251145.641,31.738,50.293,63.477,52.734,38.574
1709251145.645,62.500,48.340,91.309,65.918,69.824
1709251145.649,84.961,50.293,49.805,48.340,46.875
1709251145.653,59.570,50.781,26.367,34.668,29.785
1709251145.657,21.484,55.664,38.574,38.574,32.227
1709251145.661,39.062,56.152,67.383,62.988,42.480
1709251145.664,62.500,55.176,59.570,60.547,45.410
1709251145.668,43.457,60.059,14.160,33.203,38.574
1709251145.672,33.691,59.570,38.574,40.039,20.020
1709251145.676,47.363,60.059,99.121,54.199,34.180
1709251145.680,49.316,65.430,65.430,53.711,44.922
1709251145.683,34.180,66.895,-1.465,37.598,13.672
1709251145.687,28.809,65.430,35.645,11.230,2.930
1709251145.691,45.410,62.988,103.516,28.809,25.879
1709251145.695,64.941,67.383,57.617,51.270,12.695
1709251145.699,51.270,72.754,-6.836,47.363,-9.277
1709251145.703,23.926,67.871,34.668,36.621,24.414
1709251145.707,37.598,65.918,102.051,38.086,64.941
1709251145.710,60.547,70.801,70.801,47.852,49.805
1709251145.714,52.734,69.824,15.137,40.527,20.996
1709251145.718,20.996,66.895,66.895,31.250,19.043
1709251145.722,26.855,67.383,88.867,29.297,20.996
1709251145.726,60.059,62.500,29.785,39.062,15.625
1709251145.728,77.637,65.918,37.109,48.340,2.930
1709251145.732,52.734,69.824,80.078,34.668,37.598
1709251145.736,20.508,70.312,38.086,36.621,32.227
1709251145.740,46.387,68.359,32.715,54.688,32.715
1709251145.744,74.219,73.242,41.992,62.988,52.246
1709251145.748,47.852,79.590,4.883,68.359,24.414
1709251145.752,23.438,82.031,36.621,48.828,19.531
1709251145.755,39.062,95.215,30.273,51.270,37.109
1709251145.759,56.641,110.840,30.273,58.105,40.039
1709251145.763,55.176,129.395,82.520,26.855,29.785
1709251145.767,32.227,145.996,47.363,7.324,27.832
1709251145.771,36.133,152.344,38.574,24.414,20.996
1709251145.772,65.430,157.227,72.754,45.410,24.414
1709251145.776,57.129,159.668,71.777,43.945,66.895
1709251145.780,16.602,157.715,4.883,38.574,45.410
1709251145.784,2.930,149.902,33.691,28.320,14.160
1709251145.788,48.828,140.625,71.289,50.781,20.996
1709251145.792,70.801,136.719,28.320,82.520,7.324
1709251145.796,42.480,132.812,40.527,45.410,28.320
1709251145.799,14.648,132.324,-9.277,15.137,8.301
1709251145.803,29.785,124.023,56.152,31.250,-4.395
1709251145.807,52.734,112.793,144.531,36.133,77.637
1709251145.811,23.438,116.699,29.297,24.414,41.992
1709251145.815,-3.418,116.699,8.301,23.926,0.488
1709251145.832,22.461,107.422,50.781,34.668,9.766
1709251145.836,61.035,103.027,49.805,41.992,13.672
1709251145.840,54.688,101.562,12.207,31.250,13.184
1709251145.844,41.504,89.355,2.441,25.879,-8.301
1709251145.848,32.715,85.449,43.457,36.621,17.578
1709251145.852,34.668,85.938,49.316,49.805,51.270
1709251145.856,45.898,88.379,-18.555,52.246,21.484
1709251145.859,20.020,96.680,-24.902,37.109,-18.066
1709251145.863,5.859,89.844,82.520,20.020,-0.488
1709251145.867,35.645,86.426,83.496,35.156,32.227
1709251145.871,62.012,87.402,45.410,53.711,59.570
1709251145.875,48.828,83.984,20.508,49.805,23.438
1709251145.862,27.344,82.031,2.441,39.551,-25.879
1709251145.866,54.199,81.543,27.344,55.176,-3.418
1709251145.870,79.102,79.102,43.457,64.941,38.086
1709251145.874,46.875,80.566,28.320,44.922,32.715
1709251145.878,2.441,80.566,18.555,24.414,18.555
1709251145.882,17.578,73.242,13.672,30.762,18.066
1709251145.886,47.852,71.289,45.410,58.594,11.719
1709251145.889,45.898,68.359,75.195,41.016,47.363
1709251145.893,31.250,66.895,39.062,23.438,49.805
1709251145.897,10.742,65.430,25.391,31.250,24.902
1709251145.901,32.227,63.965,-12.695,50.781,8.789
1709251145.905,43.945,61.035,42.969,37.109,2.930
1709251145.908,6.348,58.105,85.938,14.160,34.668
1709251145.912,-4.883,57.617,32.227,37.598,33.691
1709251145.916,35.156,55.176,44.922,35.645,17.578
1709251145.920,58.594,54.688,51.758,21.484,15.137
1709251145.924,26.367,54.199,24.414,13.184,17.090
1709251145.928,-6.348,60.059,-41.504,3.906,-5.859
1709251145.932,11.230,57.617,11.719,24.902,-8.789
1709251145.935,41.016,50.781,101.562,32.227,19.531
1709251145.939,30.273,56.152,33.203,16.602,2.441
1709251145.943,2.930,58.594,9.766,14.648,-6.836
1709251145.947,10.254,51.758,43.945,21.484,8.789
1709251145.951,35.156,46.875,57.129,35.156,40.039
1709251145.967,29.297,47.852,38.086,43.457,42.480
1709251145.971,6.348,47.363,14.648,31.738,24.414
1709251145.975,-7.812,47.363,46.875,27.344,28.809
1709251145.979,20.020,50.781,75.684,42.480,58.594
1709251145.983,56.152,53.223,55.176,34.180,74.707
1709251145.987,32.715,59.082,-36.133,31.250,21.973
1709251145.991,-6.836,54.688,29.785,27.344,15.625
1709251145.994,6.836,47.852,128.418,27.344,66.406
1709251145.998,48.340,50.781,35.645,40.527,37.109
1709251146.002,40.039,51.758,13.672,28.809,14.648
1709251146.006,-8.789,46.875,60.059,5.859,36.133
1709251146.010,-1.953,46.387,57.617,21.973,45.898
1709251146.013,38.574,47.363,33.203,48.340,31.738
1709251146.017,38.086,50.293,28.320,40.039,46.875
1709251146.021,17.578,51.270,44.434,24.414,52.246
1709251146.025,19.043,46.875,67.871,23.926,36.133
1709251146.029,52.734,47.363,34.180,37.109,31.738
1709251146.033,51.758,46.875,16.602,33.691,31.738
1709251146.037,14.648,45.898,50.293,15.625,33.203
1709251146.040,10.254,46.875,77.637,19.043,32.227
1709251146.044,41.016,48.828,32.227,47.852,21.973
1709251146.048,56.641,54.199,48.340,52.246,41.992
1709251146.052,29.785,55.664,98.145,32.715,65.430
1709251146.056,3.906,57.129,44.922,18.066,48.828
1709251146.058,30.273,54.688,61.523,19.043,57.129
1709251146.062,60.059,51.270,60.547,40.039,42.480
1709251146.066,42.969,55.176,33.203,33.203,35.156
1709251146.070,25.879,59.082,17.578,20.508,28.809
1709251146.074,32.227,55.176,26.855,23.926,20.996
1709251146.078,55.176,53.223,56.641,35.156,34.668
1709251146.082,45.898,55.664,36.133,43.945,27.344
1709251146.085,9.277,53.711,12.207,42.969,16.602
1709251146.089,15.137,49.805,-18.066,62.500,24.902
1709251146.093,45.410,48.828,34.180,49.805,7.812
1709251146.097,47.363,51.270,95.215,16.602,26.855
1709251146.101,25.391,57.617,15.137,24.902,30.273
1709251146.102,15.625,54.688,-3.418,32.715,-6.836
1709251146.106,40.039,47.852,60.547,52.246,8.301
1709251146.110,56.152,48.828,54.199,57.129,26.367
1709251146.114,45.898,54.688,17.090,35.645,-18.066
1709251146.118,27.344,52.246,88.867,27.344,-7.324
1709251146.122,38.086,49.805,101.562,57.617,43.945
1709251146.126,69.824,48.340,82.031,63.965,30.273
1709251146.129,55.664,52.246,7.324,35.645,-13.672
1709251146.133,28.809,56.641,-17.578,32.227,-30.762
1709251146.137,28.809,55.664,117.676,40.527,40.527
1709251146.141,51.758,55.664,79.102,60.547,38.574
1709251146.145,66.406,56.641,25.391,69.336,26.855
1709251146.147,36.621,61.523,31.738,52.246,40.527
1709251146.151,30.762,62.988,38.574,35.645,22.949
1709251146.155,68.359,61.523,36.133,38.086,27.832
1709251146.159,74.219,62.988,18.555,42.969,32.715
1709251146.163,33.203,58.594,23.926,31.250,52.246
1709251146.167,4.395,54.688,2.930,29.297,46.387
1709251146.171,39.062,58.594,-3.418,52.734,9.766
1709251146.174,73.242,63.477,-15.625,63.965,-2.930
1709251146.178,46.387,65.918,7.324,58.105,2.441
1709251146.182,24.414,68.848,22.949,54.199,-7.812
1709251146.186,42.969,71.777,-11.230,50.293,-19.043
1709251146.190,74.219,70.312,8.789,44.434,9.277
1709251146.193,65.430,70.312,28.320,29.785,24.902
1709251146.197,16.602,62.012,-0.977,12.207,21.484
1709251146.201,5.371,60.059,-20.996,22.949,34.180
1709251146.205,53.223,71.777,-4.395,53.223,58.105
1709251146.209,73.242,71.289,-10.742,60.059,49.805
1709251146.213,26.367,72.266,-47.363,43.945,30.273
1709251146.217,7.324,73.242,-67.383,33.691,8.301
1709251146.220,30.273,67.383,-8.301,40.039,33.203
1709251146.224,41.992,67.383,42.480,40.039,64.453
1709251146.228,31.250,70.312,-15.625,30.762,42.480
1709251146.232,19.043,73.242,-38.086,21.973,-7.324
1709251146.236,43.457,63.965,16.113,33.691,14.160
1709251146.238,61.523,59.570,28.320,43.457,62.500
1709251146.242,29.785,71.289,-43.457,32.715,42.969
1709251146.246,-0.488,72.266,-41.992,32.227,20.020
1709251146.250,18.066,64.453,38.086,43.945,24.902
1709251146.254,61.035,62.500,33.203,51.758,32.227
1709251146.258,59.082,69.824,-35.156,35.156,18.066
1709251146.262,14.160,70.312,-62.988,27.344,-6.348
1709251146.265,12.695,61.035,18.066,38.574,-14.648
1709251146.269,41.504,55.176,82.520,53.223,39.551
1709251146.273,48.340,56.641,5.859,52.246,36.621
1709251146.277,25.879,57.129,-25.391,22.949,23.438
1709251146.281,6.836,54.199,11.719,10.742,41.992
1709251146.282,44.922,54.688,21.973,27.344,37.598
1709251146.286,62.500,57.617,-7.324,27.832,28.809
1709251146.290,20.996,50.781,-25.879,20.996,25.391
1709251146.294,8.301,44.434,-6.348,25.879,9.277
1709251146.298,39.551,50.293,8.301,40.039,20.996
1709251146.302,55.176,53.223,-45.898,57.617,11.230
1709251146.306,38.574,54.688,-59.570,56.152,-3.906
1709251146.309,17.578,54.199,18.066,36.133,-2.441
1709251146.313,35.156,53.711,29.297,29.785,27.832
1709251146.317,58.594,54.688,-16.602,34.180,30.762
1709251146.321,44.434,54.688,-27.344,30.273,13.184
1709251146.325,20.020,56.641,-30.762,17.578,20.996
1709251146.342,14.648,58.105,-41.992,31.738,16.602
1709251146.346,35.156,55.664,-22.949,57.129,23.438
1709251146.350,43.945,54.688,-19.531,55.664,28.809
1709251146.354,20.508,53.223,-33.691,23.438,32.227
1709251146.358,7.812,53.711,-33.691,12.695,68.359
1709251146.362,42.480,53.223,-49.316,32.227,45.410
1709251146.366,68.359,49.316,-11.230,33.691,18.066
1709251146.369,54.199,50.293,-22.461,28.320,35.645
1709251146.373,15.625,53.223,-69.824,22.461,17.578
1709251146.377,4.883,54.199,-62.500,44.434,-0.488
1709251146.381,41.992,50.781,2.930,43.945,35.645
1709251146.385,29.297,48.828,1.953,25.879,61.035
1709251146.387,-7.324,50.293,-54.199,7.812,52.734
1709251146.391,1.953,50.293,-37.598,8.789,47.852
1709251146.395,49.316,48.828,-2.441,44.922,45.898
1709251146.399,68.359,48.828,-37.109,51.270,24.414
1709251146.403,25.879,56.152,-61.035,28.809,31.250
1709251146.407,9.277,57.617,-54.199,21.484,27.832
1709251146.411,43.945,50.293,-27.344,51.270,2.930
1709251146.414,60.059,54.199,-6.348,61.035,6.348
1709251146.418,30.762,61.035,-66.895,47.363,-6.836
1709251146.422,20.996,55.176,-51.758,42.969,-7.324
1709251146.426,48.828,48.340,40.039,42.480,12.207
1709251146.430,55.664,52.246,18.555,50.781,26.855
1709251146.432,23.926,52.246,-25.879,37.598,23.438
1709251146.436,6.836,52.246,-7.812,26.367,17.578
1709251146.440,28.809,51.758,19.043,43.457,33.691
1709251146.444,62.500,52.734,-11.719,56.641,29.297
1709251146.448,55.176,53.223,-40.039,62.988,36.133
1709251146.452,14.648,53.711,-41.016,26.367,15.625
1709251146.456,12.207,55.664,-2.441,15.625,4.883
1709251146.459,55.664,56.152,13.184,47.852,35.645
1709251146.463,66.895,58.105,-55.176,45.898,-15.137
1709251146.467,14.648,55.176,3.906,41.016,-21.973
1709251146.471,-5.859,54.688,47.852,57.129,35.645
1709251146.475,29.297,57.129,-11.230,82.031,20.996
1709251146.478,53.223,54.688,-17.578,69.824,28.809
1709251146.482,38.086,54.199,-19.531,45.898,23.438
1709251146.486,33.203,56.641,3.418,33.203,17.578
1709251146.490,52.246,55.176,-18.066,37.598,16.113
1709251146.494,70.801,49.316,-22.461,52.734,15.625
1709251146.498,58.105,49.805,-2.441,32.715,44.922
1709251146.502,20.020,52.734,-8.789,29.785,65.918
1709251146.505,28.809,55.176,-41.016,52.734,47.852
1709251146.509,65.430,56.641,-23.926,53.223,35.156
1709251146.513,45.410,49.805,36.621,40.039,62.012
1709251146.517,17.090,50.781,-8.789,35.645,59.570
1709251146.521,25.391,52.246,-15.137,43.945,52.246
1709251146.523,39.062,52.246,-0.977,57.617,23.438
1709251146.527,31.250,54.688,6.836,59.082,30.273
1709251146.531,13.672,57.129,-8.789,44.922,54.199
1709251146.535,10.254,59.570,-17.578,21.484,20.508
1709251146.539,39.551,56.152,20.020,36.621,29.785
1709251146.543,58.105,53.711,5.371,58.105,37.109
1709251146.547,35.645,51.758,-14.160,36.133,14.160
1709251146.550,15.625,55.664,-36.133,16.113,12.207
1709251146.554,28.809,53.711,43.457,38.574,55.176
1709251146.558,62.988,47.852,91.309,55.176,61.523
1709251146.562,48.828,52.734,-2.930,28.809,25.879
1709251146.566,25.391,52.246,-10.254,27.832,9.277
1709251146.567,30.273,46.875,60.547,36.621,9.277
1709251146.571,46.875,46.387,72.754,22.461,40.527
1709251146.575,50.781,48.340,9.766,12.695,27.832
1709251146.579,21.973,45.410,11.230,3.906,0.488
1709251146.583,10.254,42.969,36.133,8.301,8.789
1709251146.587,47.363,43.457,26.855,41.016,4.395
1709251146.591,77.637,46.387,-17.578,50.781,-0.488
1709251146.594,43.945,47.363,-16.602,32.227,-9.277
1709251146.598,13.184,41.016,69.824,28.809,0.488
1709251146.602,41.016,36.133,57.129,45.410,28.320
1709251146.606,57.617,37.109,31.250,49.805,53.711
1709251146.610,30.273,39.551,23.438,35.156,63.965
1709251146.612,1.953,44.922,16.113,31.250,63.477
1709251146.616,28.320,50.781,4.883,42.480,57.129
1709251146.620,56.152,51.758,-6.836,53.223,39.062
1709251146.624,41.016,50.781,-0.488,48.340,42.480
1709251146.628,28.809,49.805,-20.996,54.199,28.809
1709251146.632,32.227,50.781,-20.996,67.871,13.672
1709251146.636,48.340,50.293,-20.508,81.543,9.766
1709251146.639,47.363,46.875,20.996,55.664,-1.465
1709251146.643,27.344,46.875,59.082,10.742,30.273
1709251146.647,23.926,50.293,7.324,19.531,42.480
1709251146.651,33.203,48.340,0.488,56.641,31.738
1709251146.655,42.480,47.363,33.691,68.359,14.160
1709251146.672,20.996,50.293,37.109,61.035,35.645
1709251146.676,-1.465,51.758,-3.906,46.875,44.922
1709251146.680,26.855,56.152,10.254,33.203,31.738
1709251146.684,60.547,52.246,57.129,38.574,25.391
1709251146.688,44.922,55.176,22.949,36.133,9.277
1709251146.692,24.414,62.012,-35.156,30.273,-11.719
1709251146.696,37.598,52.734,27.344,46.387,5.859
1709251146.699,54.199,43.945,106.934,59.082,34.180
1709251146.703,36.133,48.340,46.875,51.270,36.133
1709251146.707,6.836,53.223,14.160,33.691,18.066
1709251146.711,4.883,54.199,41.016,47.363,10.254
1709251146.715,38.574,51.758,67.383,60.547,46.387
1709251146.717,52.246,55.176,32.227,41.016,66.406
1709251146.721,24.414,58.594,1.465,26.367,31.250
1709251146.725,12.207,56.641,37.598,15.137,12.695
1709251146.729,47.363,52.246,70.312,30.762,38.086
1709251146.733,83.008,50.293,35.156,46.875,48.828
1709251146.737,49.805,59.570,-31.250,32.227,13.184
1709251146.741,16.113,65.430,12.207,31.738,-9.277
1709251146.744,54.199,58.594,84.961,47.852,31.738
1709251146.748,84.473,59.570,27.832,49.316,50.781
1709251146.752,61.523,62.500,-54.199,41.016,5.371
1709251146.756,29.297,57.129,19.531,21.973,4.395
1709251146.760,31.250,51.758,74.707,23.926,56.641
1709251146.762,74.707,54.199,12.207,48.340,64.453
1709251146.766,70.312,55.664,-15.137,35.645,31.250
1709251146.770,33.203,50.781,4.883,21.973,8.789
1709251146.774,29.297,52.246,2.441,41.992,24.902
1709251146.778,36.133,50.293,-18.066,57.129,46.387
1709251146.782,40.039,48.828,-14.160,39.062,40.527
1709251146.786,13.672,47.852,3.418,9.277,24.902
1709251146.789,-0.488,42.480,24.902,22.949,39.551
1709251146.793,41.016,50.293,-11.230,56.152,38.086
1709251146.797,54.199,52.246,-12.695,41.504,19.043
1709251146.801,18.555,47.363,26.367,17.090,17.090
1709251146.805,9.277,54.199,-7.324,16.113,2.930
1709251146.823,35.156,55.176,20.020,36.621,16.113
1709251146.827,57.617,55.664,30.273,64.941,25.879
1709251146.831,35.645,57.617,9.766,52.246,31.250
1709251146.835,2.441,57.617,-17.090,30.273,28.809
1709251146.839,4.395,54.688,-4.395,34.668,51.758
1709251146.843,43.457,54.688,7.812,57.617,71.289
1709251146.847,62.988,58.105,-11.719,43.457,27.344
1709251146.850,28.809,56.152,-8.789,19.043,2.930
1709251146.854,17.578,53.711,-27.344,29.785,3.906
1709251146.858,56.152,51.270,38.086,40.527,26.855
1709251146.862,67.871,49.805,82.031,45.898,43.945
1709251146.866,28.320,56.152,-18.066,28.320,27.344
1709251146.852,-5.371,50.293,-20.020,16.113,25.879
1709251146.856,20.508,43.945,38.086,25.391,29.297
1709251146.860,64.941,52.246,21.973,30.762,13.184
1709251146.864,46.875,51.270,-6.836,25.879,32.715
1709251146.868,9.277,47.363,-28.809,19.531,22.949
1709251146.872,36.133,46.387,-8.789,40.039,20.508
1709251146.876,69.824,47.363,3.418,45.410,40.039
1709251146.879,47.852,48.340,-18.066,27.832,30.273
1709251146.883,11.230,48.340,-9.766,20.020,20.996
1709251146.887,20.996,47.363,-7.812,24.902,34.668
1709251146.891,61.035,45.410,10.742,54.688,63.965
1709251146.895,58.594,54.199,-55.664,49.805,33.691
1709251146.897,20.020,56.641,-77.148,20.996,-10.254
1709251146.901,12.207,48.828,27.832,25.879,18.555
1709251146.905,41.504,49.316,30.762,50.293,57.617
1709251146.909,66.895,45.898,15.137,51.270,69.824
1709251146.913,51.758,43.457,-33.203,31.250,46.387
1709251146.917,18.066,46.875,-61.523,19.043,-2.930
1709251146.921,42.969,44.434,-16.113,35.645,26.367
1709251146.924,81.055,44.922,-53.223,53.223,7.812
1709251146.928,45.898,41.016,-30.762,29.785,-18.555
1709251146.932,23.926,38.574,5.371,10.254,43.457
1709251146.936,41.992,44.922,-32.227,44.434,48.340
1709251146.940,51.758,44.922,-7.812,72.266,19.043
1709251146.943,38.574,47.363,-15.137,52.246,20.996
1709251146.947,16.602,41.504,-22.949,27.344,16.113
1709251146.951,27.344,41.504,-9.766,40.527,17.090
1709251146.955,51.758,51.758,10.254,61.035,23.438
1709251146.959,40.527,48.828,34.668,54.199,21.973
1709251146.963,4.883,47.852,5.859,34.668,20.996
1709251146.967,-0.977,50.781,-25.391,33.691,4.883
1709251146.970,26.855,45.898,33.203,52.246,2.441
1709251146.974,55.176,43.945,111.816,50.781,46.875
1709251146.978,38.086,43.457,58.594,49.805,39.551
1709251146.982,13.672,38.574,50.293,36.133,30.762
1709251146.986,41.016,41.504,83.008,32.715,27.344
1709251146.987,64.941,41.504,103.516,36.133,25.879
1709251146.991,41.504,44.922,83.984,26.855,20.508
1709251146.995,-2.441,44.922,95.703,28.809,25.391
1709251146.999,18.555,43.457,130.371,45.410,49.316
1709251147.003,55.176,44.922,144.043,54.199,46.875
1709251147.007,34.180,44.434,129.883,29.297,29.785
1709251147.011,14.160,48.340,81.055,13.184,3.906
1709251147.014,33.691,44.434,149.902,18.066,15.137
1709251147.018,66.406,38.086,213.867,32.715,48.828
1709251147.022,62.012,41.016,137.207,43.945,39.551
1709251147.026,26.367,41.016,114.258,34.180,12.695
1709251147.030,12.207,38.574,155.273,30.762,26.367
1709251147.047,28.809,38.574,176.270,61.523,63.477
1709251147.051,47.852,40.039,142.090,67.871,56.152
1709251147.055,34.668,40.039,126.953,32.227,24.902
1709251147.059,15.137,36.621,153.809,14.648,29.785
1709251147.063,41.504,34.668,161.133,34.668,35.645
1709251147.067,72.754,34.668,103.027,45.898,28.320
1709251147.071,36.133,30.273,93.262,41.992,-0.977
1709251147.074,0.488,29.297,154.785,31.738,10.254
1709251147.078,23.926,31.738,131.348,36.621,39.551
1709251147.082,61.523,31.738,90.332,63.965,44.922
1709251147.086,73.730,29.785,87.891,52.246,54.199
1709251147.090,30.273,27.832,76.660,31.738,28.809
1709251147.093,2.930,25.879,67.383,32.227,14.160
1709251147.097,39.062,19.043,71.777,37.109,33.203
1709251147.101,61.035,23.926,71.777,43.945,26.367
1709251147.105,33.691,38.574,60.059,37.109,46.387
1709251147.109,21.484,44.434,24.414,24.414,21.484
1709251147.113,56.152,39.551,33.691,26.367,2.930
1709251147.117,81.543,33.691,52.734,38.086,20.020
1709251147.120,48.828,37.109,53.711,19.043,9.277
1709251147.124,18.066,41.016,32.715,8.301,20.020
1709251147.128,47.852,42.480,-18.555,41.016,-8.301
1709251147.132,67.383,41.016,42.480,42.969,-4.395
1709251147.136,42.480,40.039,64.453,14.160,39.062
1709251147.137,4.395,43.457,-20.996,17.578,16.113
1709251147.141,14.648,40.039,-6.836,24.414,7.324
1709251147.145,59.082,40.039,20.020,41.016,13.672
1709251147.149,54.199,40.527,-5.859,48.828,13.672
1709251147.153,8.789,42.480,-30.762,28.320,36.621
1709251147.157,6.836,42.969,-34.180,26.367,27.344
1709251147.161,31.250,38.086,-18.555,53.223,9.277
1709251147.164,31.250,32.227,-7.324,56.641,50.293
1709251147.168,16.113,35.156,-81.055,42.969,13.184
1709251147.172,0.488,41.504,-71.289,35.156,-11.719
1709251147.176,29.785,38.574,6.836,47.363,17.090
1709251147.180,75.684,43.457,-21.973,62.500,32.715
1709251147.182,48.828,49.316,-46.387,49.805,68.848
1709251147.186,18.066,47.363,-62.988,48.828,41.992
1709251147.190,33.203,47.363,-50.293,67.383,30.273
1709251147.194,51.270,49.316,-72.266,72.754,38.574
1709251147.198,43.945,54.199,-125.488,40.527,-3.906
1709251147.202,4.395,51.758,-127.930,15.625,-22.461
1709251147.206,7.812,45.898,-115.723,28.320,-0.488
1709251147.209,47.363,44.922,-128.906,55.664,38.574
1709251147.213,63.965,48.340,-183.594,39.551,35.156
1709251147.217,39.551,46.387,-167.969,-0.977,24.902
1709251147.221,22.949,43.945,-171.875,10.742,36.133
1709251147.225,49.805,52.734,-212.891,44.434,46.875
1709251147.227,70.312,53.711,-225.098,52.734,47.852
1709251147.231,50.781,51.758,-244.629,42.480,36.621
1709251147.235,29.785,49.805,-270.020,30.762,35.156
1709251147.239,53.711,46.387,-309.570,34.668,13.184
1709251147.243,65.918,47.852,-308.105,49.316,6.836
1709251147.247,29.785,50.293,-315.430,39.062,44.434
1709251147.251,13.184,51.270,-348.145,12.207,20.020
1709251147.254,27.344,52.246,-372.559,14.648,20.996
1709251147.258,52.246,50.781,-381.348,38.086,15.137
1709251147.262,49.316,49.316,-358.398,39.551,11.719
1709251147.266,18.555,48.828,-414.551,27.344,28.809
1709251147.270,21.973,47.363,-429.199,36.621,14.160
1709251147.272,63.965,44.922,-403.809,55.664,32.715
1709251147.276,70.312,39.062,-422.363,58.594,76.172
1709251147.280,29.785,41.016,-481.445,37.109,74.219
1709251147.284,10.254,42.480,-499.512,22.461,24.902
1709251147.288,41.992,40.527,-458.008,35.645,37.109
1709251147.292,53.223,42.969,-483.398,50.293,46.875
1709251147.296,28.809,39.551,-501.465,45.410,27.344
1709251147.299,8.789,41.504,-526.367,39.062,10.742
1709251147.303,21.484,37.598,-478.027,39.551,19.043
1709251147.307,55.176,29.785,-417.969,43.457,45.898
1709251147.311,53.223,40.527,-490.234,51.758,46.875
1709251147.315,26.367,47.363,-506.348,41.992,39.551
1709251147.317,33.691,42.480,-454.102,49.805,24.414
1709251147.321,52.246,40.527,-456.543,51.270,19.531
1709251147.325,44.434,40.527,-488.281,33.203,21.973
1709251147.329,29.297,41.016,-482.422,25.879,21.484
1709251147.333,18.555,40.039,-461.426,32.715,13.672
1709251147.337,41.992,39.062,-457.031,50.293,20.508
1709251147.341,69.824,41.504,-487.305,47.852,41.504
1709251147.344,39.062,42.480,-476.074,26.855,26.855
1709251147.348,8.789,39.551,-416.504,30.762,36.133
1709251147.352,29.785,37.598,-435.547,58.594,30.762
1709251147.356,57.617,41.504,-451.660,55.664,6.836
1709251147.360,45.410,41.992,-446.289,26.367,34.668
1709251147.362,21.973,36.621,-446.777,9.766,54.199
1709251147.366,41.504,33.691,-460.938,27.832,38.086
1709251147.370,62.500,34.668,-468.750,51.758,41.016
1709251147.374,52.734,33.691,-485.352,66.895,29.297
1709251147.378,24.414,36.133,-516.113,50.293,17.578
1709251147.382,26.367,38.086,-531.250,44.922,11.230
1709251147.386,64.941,36.621,-529.297,58.105,32.715
1709251147.389,56.641,34.668,-521.484,34.668,58.594
1709251147.393,22.949,31.250,-538.086,14.648,52.734
1709251147.397,25.879,35.156,-584.961,25.879,38.574
1709251147.401,64.453,36.133,-577.637,60.547,40.527
1709251147.405,93.262,33.691,-576.172,51.270,42.969
1709251147.408,65.430,36.133,-601.562,26.367,42.969
1709251147.412,27.832,41.016,-625.000,34.180,36.133
1709251147.416,51.270,36.133,-617.188,40.527,28.809
1709251147.420,73.730,32.715,-590.820,46.875,17.090
1709251147.424,51.758,42.969,-606.934,51.758,19.531
1709251147.428,28.320,48.828,-653.809,36.621,42.969
1709251147.432,51.758,44.922,-627.930,31.250,42.480
1709251147.435,95.215,34.668,-556.641,52.246,50.781
1709251147.439,60.059,34.180,-596.680,36.621,53.711
1709251147.443,7.324,37.109,-645.996,13.184,20.020
1709251147.447,15.625,33.691,-595.703,27.344,14.160
1709251147.451,45.410,34.668,-552.246,46.387,45.410
1709251147.468,57.129,35.645,-585.449,48.340,67.871
1709251147.472,37.109,36.133,-603.027,30.762,57.617
1709251147.476,15.625,37.109,-603.516,36.621,26.367
1709251147.480,36.621,35.156,-582.520,60.547,26.367
1709251147.484,58.105,36.133,-576.172,48.828,29.297
1709251147.488,36.621,40.527,-657.227,40.039,20.020
1709251147.492,9.277,38.086,-624.512,42.480,17.090
1709251147.495,27.832,35.645,-559.082,42.480,29.785
1709251147.499,63.477,41.992,-618.652,53.223,29.297
1709251147.503,61.035,41.016,-633.301,52.246,26.855
1709251147.507,34.180,39.062,-598.145,27.344,38.574
1709251147.511,27.832,40.527,-598.145,26.367,34.180
1709251147.512,55.176,36.133,-610.352,47.852,15.137
1709251147.516,62.500,36.621,-591.797,61.523,35.156
1709251147.520,42.480,39.551,-577.148,65.430,42.969
1709251147.524,39.062,41.016,-566.895,59.570,9.277
1709251147.528,45.410,46.387,-554.688,75.195,31.738
1709251147.532,57.129,50.781,-575.684,42.480,18.555
1709251147.536,43.945,50.293,-563.965,-2.930,8.789
1709251147.539,25.391,50.293,-539.062,4.883,22.461
1709251147.543,78.613,42.969,-546.387,33.203,5.371
1709251147.547,93.750,41.992,-518.555,51.758,2.930
1709251147.551,39.551,48.340,-459.961,30.273,23.438
1709251147.555,17.578,47.363,-473.145,24.414,15.625
1709251147.558,28.809,48.340,-440.918,33.203,31.250
1709251147.562,60.059,46.875,-417.480,47.852,52.246
1709251147.566,44.434,47.363,-435.547,41.504,21.973
1709251147.570,15.625,49.805,-431.641,22.461,4.883
1709251147.574,39.551,49.316,-399.414,45.898,8.301
1709251147.578,66.895,48.828,-369.629,63.477,8.789
1709251147.582,53.223,44.922,-362.793,37.598,11.230
1709251147.585,13.184,42.480,-354.492,22.949,40.039
1709251147.589,17.090,44.922,-385.254,24.414,33.203
1709251147.593,56.152,42.969,-328.613,32.715,5.859
1709251147.597,58.105,42.480,-282.715,52.734,18.555
1709251147.601,35.156,50.293,-348.145,48.828,19.531
1709251147.617,24.902,55.176,-335.449,37.109,23.438
1709251147.621,35.645,47.852,-279.297,43.457,42.480
1709251147.625,73.242,47.363,-297.363,30.762,33.203
1709251147.629,71.777,52.246,-319.336,11.719,-0.977
1709251147.633,20.996,51.270,-290.527,20.020,18.066
1709251147.637,50.781,49.805,-269.043,39.062,46.875
1709251147.641,89.355,46.875,-237.793,45.410,43.945
1709251147.644,46.387,48.340,-270.020,54.688,38.574
1709251147.648,1.465,51.758,-276.367,47.363,7.324
1709251147.652,6.348,48.340,-179.688,20.996,20.996
1709251147.656,42.969,47.852,-198.242,37.109,38.086
1709251147.660,58.594,52.246,-235.352,47.363,19.531
1709251147.648,40.527,51.758,-198.730,32.715,40.527
1709251147.652,46.875,51.758,-178.711,48.828,34.668
1709251147.656,63.477,51.758,-170.410,72.266,45.410
1709251147.660,53.223,51.758,-182.129,57.617,48.828
1709251147.664,30.273,49.316,-177.246,36.621,33.691
1709251147.668,15.137,44.922,-165.527,36.133,44.434
1709251147.672,44.922,46.875,-150.391,61.035,35.156
1709251147.675,76.172,46.875,-127.930,76.660,40.039
1709251147.679,53.223,47.852,-122.070,60.059,44.922
1709251147.683,15.137,49.805,-115.234,41.992,28.320
1709251147.687,20.508,46.387,-108.398,47.852,18.066
1709251147.691,49.316,45.898,-116.699,55.664,1.953
1709251147.693,38.086,42.480,-54.199,41.992,17.578
1709251147.697,6.836,45.410,-46.875,41.992,53.223
1709251147.701,2.930,49.805,-101.562,58.594,18.555
1709251147.705,24.414,45.410,-62.500,74.219,28.320
1709251147.709,36.133,43.945,-55.176,91.797,28.809
1709251147.713,23.438,48.340,-77.637,88.867,7.324
1709251147.717,0.000,50.293,-68.359,40.527,38.574
1709251147.720,4.395,46.387,-47.852,53.711,22.949
1709251147.724,-2.930,38.086,31.250,59.082,10.742
1709251147.728,-20.996,43.457,6.836,22.949,35.156
1709251147.732,-35.645,49.805,-22.461,27.344,39.551
1709251147.736,-19.531,50.293,7.812,42.969,13.184
1709251147.737,-4.395,49.316,26.855,51.758,37.109
1709251147.741,-50.781,49.316,-5.371,46.875,49.805
1709251147.745,-107.910,50.781,-9.766,40.039,25.391
1709251147.749,-136.719,47.363,35.645,39.551,21.973
1709251147.753,-125.977,43.945,43.945,41.016,29.297
1709251147.757,-132.324,43.945,15.137,38.574,45.898
1709251147.761,-188.477,45.410,-23.438,25.879,25.391
1709251147.764,-237.793,41.016,41.504,8.301,11.230
1709251147.768,-219.727,36.621,116.211,4.395,46.875
1709251147.772,-227.539,44.434,45.410,-1.465,24.902
1709251147.776,-292.480,47.363,30.762,-21.484,3.906
1709251147.780,-299.316,44.922,84.961,-20.508,58.594
1709251147.782,-258.301,46.875,80.566,7.324,70.312
1709251147.786,-308.594,47.852,44.922,16.602,28.809
1709251147.790,-391.113,45.898,50.781,4.395,18.555
1709251147.794,-327.148,43.457,83.496,-8.301,31.250
1709251147.798,-201.172,44.922,97.656,12.207,33.691
1709251147.802,-112.793,45.898,41.992,27.344,1.465
1709251147.806,-85.938,44.922,58.105,7.812,-34.180
1709251147.809,-81.543,46.387,145.508,-0.977,15.137
1709251147.813,-45.410,47.363,111.328,11.230,43.945
1709251147.817,18.555,47.363,87.402,26.855,10.742
1709251147.821,47.363,47.363,108.887,36.621,20.508
1709251147.825,37.598,45.898,106.934,38.086,48.828
1709251147.858,29.785,43.457,89.844,17.578,45.410
1709251147.862,49.805,41.992,99.121,6.836,42.969
1709251147.866,82.520,42.969,105.469,31.250,52.734
1709251147.870,74.707,44.922,83.496,32.715,55.176
1709251147.874,60.547,45.898,74.219,21.484,44.922
1709251147.878,91.309,44.434,78.125,32.715,56.152
1709251147.882,131.348,46.875,95.215,42.969,51.270
1709251147.885,131.348,49.805,108.398,45.898,44.434
1709251147.889,108.887,54.199,70.312,31.738,38.086
1709251147.893,104.980,54.199,67.383,20.508,43.945
1709251147.897,133.789,49.805,123.047,36.133,32.227
1709251147.901,135.254,48.828,95.215,40.527,20.996
1709251147.887,105.469,51.758,49.316,28.809,17.578
1709251147.891,113.770,52.246,94.727,33.203,40.039
1709251147.895,141.113,48.828,129.395,48.828,65.918
1709251147.899,149.902,52.246,100.586,39.551,57.617
1709251147.903,130.859,53.223,46.875,22.949,42.969
1709251147.907,119.629,50.781,40.039,36.621,35.645
1709251147.911,133.789,51.758,102.051,53.223,28.320
1709251147.914,141.602,45.898,108.887,54.199,31.250
1709251147.918,118.652,47.852,62.500,23.438,26.367
1709251147.922,80.566,54.688,68.359,7.812,4.883
1709251147.926,110.840,51.758,109.375,46.387,36.621
1709251147.930,148.926,50.781,102.051,49.316,77.148
1709251147.932,121.582,60.059,8.789,42.969,21.484
1709251147.936,83.984,58.594,25.391,34.668,-19.531
1709251147.940,70.312,52.734,116.211,41.016,31.250
1709251147.944,106.934,57.129,93.262,66.406,31.738
1709251147.948,115.723,55.664,63.477,58.594,13.672
1709251147.952,79.102,53.223,49.316,54.688,12.207
1709251147.956,88.867,52.246,64.453,39.062,6.836
1709251147.959,122.559,45.898,78.613,52.734,20.996
1709251147.963,122.559,48.340,27.832,73.242,-4.395
1709251147.967,81.543,52.734,53.223,27.832,-13.672
1709251147.971,55.176,52.734,84.473,14.648,12.695
1709251147.975,89.355,52.246,59.082,40.527,51.758
1709251147.977,126.465,54.688,54.199,42.969,63.965
1709251147.981,93.262,53.223,44.922,48.340,36.133
1709251147.985,66.406,52.246,44.434,47.363,18.555
1709251147.989,88.379,55.664,56.641,42.480,18.555
1709251147.993,107.422,53.711,62.012,37.598,40.527
1709251147.997,100.098,53.223,41.504,42.480,41.992
1709251148.001,60.059,53.711,35.645,45.410,17.090
1709251148.004,71.777,52.734,31.738,48.340,14.160
1709251148.008,105.469,52.246,33.203,78.613,-6.348
1709251148.012,105.469,49.805,98.633,61.523,14.160
1709251148.016,87.891,54.199,64.941,17.578,39.551
1709251148.020,68.848,54.688,33.203,25.391,11.230
1709251148.023,96.191,52.246,62.988,46.875,21.973
1709251148.027,115.723,49.316,54.199,53.711,62.012
1709251148.031,87.891,43.457,12.695,46.875,44.922
1709251148.035,60.547,44.434,9.277,32.227,7.812
1709251148.039,73.242,43.945,43.945,58.105,12.207
1709251148.043,102.539,46.387,36.621,86.426,37.598
1709251148.047,93.262,49.316,15.137,77.637,38.574
1709251148.050,69.336,49.316,-21.973,78.125,0.488
1709251148.054,80.566,46.387,27.832,65.430,-9.277
1709251148.058,96.680,44.434,89.355,42.969,59.570
1709251148.062,87.402,51.270,-12.207,43.945,44.434
1709251148.066,62.012,53.711,-38.574,24.414,-21.973
1709251148.067,55.664,51.758,48.828,19.043,-0.977
1709251148.071,92.773,47.852,48.340,40.527,32.715
1709251148.075,108.398,48.828,0.488,50.293,41.504
1709251148.079,71.777,53.711,-14.160,45.410,11.230
1709251148.083,53.711,50.293,-4.395,53.223,-16.602
1709251148.087,76.660,44.434,20.020,60.547,34.180
1709251148.091,82.031,46.875,-24.902,55.176,37.598
1709251148.094,51.758,48.828,-37.598,46.387,-7.812
1709251148.098,20.996,42.969,32.227,34.668,17.090
1709251148.102,52.734,44.434,21.973,44.434,41.504
1709251148.106,88.379,47.363,-23.438,46.387,39.062
1709251148.110,67.871,44.434,-28.320,36.133,27.344
1709251148.113,28.809,42.969,4.395,35.645,18.555
1709251148.117,47.852,43.945,4.883,48.828,44.922
1709251148.121,94.727,41.016,-4.883,59.570,62.012
1709251148.125,77.148,43.457,-3.418,38.574,52.734
1709251148.129,50.781,51.758,-24.414,32.227,21.973
1709251148.133,36.133,50.781,-24.902,51.758,10.254
1709251148.137,49.316,50.781,-22.949,52.246,9.766
1709251148.140,63.477,51.758,7.324,33.691,3.906
1709251148.144,30.762,53.223,22.461,31.250,62.500
1709251148.148,31.250,56.152,-37.598,38.574,18.066
1709251148.152,66.895,54.688,-10.254,43.945,-0.977
1709251148.156,90.820,51.270,9.277,50.293,41.992
1709251148.173,70.801,53.223,-33.203,32.715,15.137
1709251148.177,35.645,56.641,-58.105,26.367,8.789
1709251148.181,46.387,52.734,-27.832,45.410,22.949
1709251148.185,73.730,48.340,-3.906,45.898,25.879
1709251148.189,64.941,52.246,-41.016,38.574,1.465
1709251148.193,31.250,58.105,-81.055,33.203,2.930
1709251148.197,31.250,55.664,-67.383,41.016,25.391
1709251148.200,61.035,46.875,12.207,55.664,11.230
1709251148.204,52.246,44.434,-22.949,45.410,-13.672
1709251148.208,15.137,45.898,-72.266,27.832,-1.465
1709251148.212,35.645,44.922,-46.387,41.504,16.113
1709251148.216,66.406,41.992,-28.809,64.453,32.715
1709251148.217,64.453,43.945,-35.645,52.246,62.012
1709251148.221,40.527,46.875,-60.059,28.320,44.434
1709251148.225,13.672,45.410,-42.480,14.160,25.879
1709251148.229,42.969,41.992,-8.789,26.855,57.129
1709251148.233,65.918,41.016,-31.738,51.758,67.871
1709251148.237,35.645,51.270,-71.777,50.781,30.273
1709251148.241,18.555,58.105,-60.547,22.461,18.066
1709251148.244,59.082,55.664,-23.438,22.949,24.902
1709251148.248,91.309,54.199,-20.020,49.805,31.738
1709251148.252,63.965,52.734,-99.609,38.574,-0.977
1709251148.256,12.695,41.504,-63.477,22.461,-15.137
1709251148.260,34.668,41.504,5.859,27.832,10.742
1709251148.262,76.660,51.758,-35.156,50.781,18.555
1709251148.266,67.871,48.828,-46.387,61.523,35.156
1709251148.270,43.945,39.551,-46.875,49.316,37.109
1709251148.274,21.973,39.551,-39.551,47.852,34.668
1709251148.278,59.570,38.086,-37.109,48.828,50.293
1709251148.282,88.867,36.621,-56.152,41.504,36.133
1709251148.286,46.875,41.992,-46.875,28.809,41.504
1709251148.289,21.973,40.039,-36.621,9.766,48.828
1709251148.293,46.875,39.062,-61.523,52.246,-4.883
1709251148.297,64.453,39.551,-44.922,70.801,-2.441
1709251148.301,61.035,38.086,9.766,40.039,48.828
1709251148.305,22.949,39.062,-26.855,18.555,33.203
1709251148.307,32.227,36.133,-21.484,34.668,44.922
1709251148.311,75.684,34.668,-5.859,57.617,50.293
1709251148.315,57.129,36.621,-23.926,44.922,47.852
1709251148.319,23.438,39.551,-46.875,46.875,55.176
1709251148.323,32.227,40.527,-47.363,44.434,26.855
1709251148.327,71.289,36.621,-29.297,45.898,13.672
1709251148.331,73.730,40.039,-19.531,50.781,22.949
1709251148.334,37.598,45.898,-23.926,34.180,49.316
1709251148.338,21.973,47.363,-56.152,35.156,14.648
1709251148.342,52.734,39.551,16.602,54.199,3.906
1709251148.346,75.195,38.086,14.648,56.152,25.879
1709251148.350,46.875,41.016,-66.406,51.270,7.324
1709251148.352,24.902,37.109,-24.902,29.785,33.691
1709251148.356,55.176,32.227,20.996,39.062,62.012
1709251148.360,76.172,33.203,-10.254,78.125,48.828
1709251148.364,41.504,41.016,-46.875,57.617,41.992
1709251148.368,17.578,40.527,-47.852,22.949,29.297
1709251148.372,39.062,38.086,-37.598,46.875,11.719
1709251148.376,52.246,38.574,4.395,67.383,27.344
1709251148.379,46.387,41.016,-47.363,48.828,25.391
1709251148.383,47.363,38.574,-69.336,30.762,10.254
1709251148.387,48.828,32.227,19.531,38.086,24.414
1709251148.391,69.336,41.504,2.930,53.223,39.062
1709251148.395,75.195,47.363,-40.527,44.434,12.695
1709251148.398,40.039,44.922,-40.527,26.367,8.301
1709251148.402,29.297,45.898,-47.363,35.645,19.531
1709251148.406,56.641,43.457,-36.621,58.105,22.461
1709251148.410,70.312,43.457,-26.855,45.410,8.789
1709251148.414,36.621,48.340,-41.016,28.809,1.953
1709251148.418,1.953,48.340,-42.480,37.598,42.480
1709251148.422,30.273,48.828,-24.414,52.246,58.105
1709251148.425,63.477,55.176,-50.293,54.688,19.531
1709251148.429,43.457,50.293,-29.785,45.410,13.672
1709251148.433,13.184,50.781,-5.859,35.645,40.039
1709251148.437,37.109,55.664,-49.316,49.805,29.297
1709251148.441,71.289,55.664,-41.992,62.988,37.109
1709251148.442,58.594,57.617,-33.203,58.105,41.992
1709251148.446,30.762,54.199,-57.617,44.922,23.926
1709251148.450,28.320,53.223,-59.570,24.414,16.602
1709251148.454,49.805,51.270,-29.785,20.020,34.180
1709251148.458,54.688,54.199,-42.969,40.039,32.715
1709251148.462,37.109,55.664,-54.688,34.668,50.781
1709251148.466,31.250,54.688,-75.195,33.691,53.223
1709251148.469,56.641,54.199,-73.730,62.012,4.395
1709251148.473,73.242,43.945,11.719,62.012,25.879
1709251148.477,49.805,44.922,-9.277,46.387,70.801
1709251148.481,22.461,49.805,-68.848,41.504,40.527
1709251148.485,37.598,38.086,-30.273,48.828,33.691
1709251148.487,76.172,38.086,-0.488,54.199,72.266
1709251148.491,65.430,46.875,-41.992,46.387,89.355
1709251148.495,20.020,44.434,-59.082,34.180,72.266
1709251148.499,15.137,40.527,-28.320,40.039,49.805
1709251148.503,58.105,38.086,-28.320,60.547,43.945
1709251148.507,62.988,38.574,-76.660,51.758,26.367
1709251148.511,26.855,42.480,-107.910,24.414,11.719
1709251148.514,20.996,43.945,-60.059,24.902,2.441
1709251148.518,44.434,29.785,0.488,57.129,9.766
1709251148.522,82.031,85.449,-47.363,63.965,33.203
1709251148.526,57.129,182.129,-91.797,33.203,31.250
1709251148.530,11.719,206.543,-48.828,18.066,29.785
1709251148.547,50.293,207.520,-29.297,38.574,50.781
1709251148.551,91.797,207.520,-75.195,50.781,32.227
1709251148.555,60.059,201.172,-86.426,37.598,11.230
1709251148.559,10.254,189.453,-60.547,35.156,15.625
1709251148.563,15.137,180.176,-46.387,41.992,37.109
1709251148.567,55.176,174.805,-88.379,70.801,39.551
1709251148.571,59.082,168.457,-96.191,60.059,28.320
1709251148.574,20.508,160.156,-45.898,-1.465,29.297
1709251148.578,28.320,156.250,-47.852,-5.371,31.738
1709251148.582,69.336,149.902,-56.152,27.832,54.199
1709251148.586,72.754,140.625,-58.594,37.109,61.035
1709251148.590,35.645,136.230,-56.152,30.762,27.344
1709251148.594,19.043,132.812,-43.945,33.203,36.133
1709251148.598,59.570,129.395,-45.410,45.898,40.039
1709251148.602,83.984,122.070,-26.855,47.363,51.270
1709251148.606,48.828,117.188,-44.922,26.855,56.152
1709251148.610,18.555,111.816,-74.219,16.602,21.973
1709251148.614,44.434,103.516,-56.152,31.738,40.527
1709251148.618,73.730,97.656,-43.457,43.945,40.039
1709251148.621,56.641,93.262,-39.062,31.250,27.344
1709251148.625,4.883,92.773,-60.059,12.695,32.715
1709251148.629,8.789,91.797,-82.031,29.785,15.137
1709251148.633,53.223,83.008,-4.395,51.270,49.316
1709251148.637,58.594,78.125,-6.836,49.316,67.871
1709251148.638,28.809,77.148,-71.289,29.297,26.855
1709251148.642,19.531,76.172,-57.617,26.855,17.090
1709251148.646,60.059,70.312,-11.230,46.387,17.090
1709251148.650,72.266,65.918,-7.812,49.805,57.617
1709251148.654,20.020,69.824,-78.125,40.527,52.246
1709251148.658,-11.230,67.871,-72.754,34.180,28.320
1709251148.662,23.438,60.547,-9.277,30.762,45.410
1709251148.665,59.570,59.082,-2.930,37.598,52.246
1709251148.669,46.875,68.359,-90.820,35.156,9.766
1709251148.673,16.113,71.777,-93.750,15.625,-30.273
1709251148.677,29.297,61.035,18.555,6.836,-0.488
1709251148.681,55.664,57.617,-15.625,18.066,7.324
1709251148.682,44.434,56.641,-47.852,36.621,-6.348
1709251148.686,14.160,53.711,-23.438,18.066,35.645
1709251148.690,8.789,51.758,-30.762,16.602,46.875
1709251148.694,51.270,49.316,-45.898,34.668,30.762
1709251148.698,55.176,52.734,-67.871,37.109,33.203
1709251148.702,5.859,56.152,-75.195,21.973,31.738
1709251148.706,11.230,50.781,-62.500,8.789,28.809
1709251148.709,51.758,45.410,-41.992,39.062,16.602
1709251148.713,54.199,52.246,-65.918,51.270,26.367
1709251148.717,15.137,53.223,-50.781,22.461,41.992
1709251148.721,1.465,50.293,-3.906,5.371,50.293
1709251148.725,22.949,49.805,-39.551,35.645,26.367
1709251148.728,50.293,47.363,-37.598,63.965,12.207
1709251148.732,35.645,49.805,-23.926,49.805,49.316
1709251148.736,1.953,51.270,-49.805,41.016,40.039
1709251148.740,22.461,47.363,-47.852,51.270,16.113
1709251148.744,51.270,45.898,-39.062,53.223,8.789
1709251148.748,34.668,48.828,-50.781,28.809,22.461
1709251148.752,2.930,49.316,-44.434,29.297,34.668
1709251148.755,33.203,47.852,-55.664,53.711,20.508
1709251148.759,71.777,47.363,-65.430,49.316,1.465
1709251148.763,45.410,43.457,-5.371,43.457,0.000
1709251148.767,18.066,47.852,-5.371,35.156,39.062
1709251148.771,23.926,45.898,-23.926,11.230,62.988
1709251148.772,63.477,42.969,-20.996,18.555,27.344
1709251148.776,70.312,55.176,-23.926,41.504,15.137
1709251148.780,29.785,60.547,-38.574,40.527,13.672
1709251148.784,1.953,56.641,-29.297,35.645,15.625
1709251148.788,26.855,51.758,-1.953,52.246,41.504
1709251148.792,59.082,50.293,-22.949,59.082,40.527
1709251148.796,37.598,54.688,-43.457,19.531,16.602
1709251148.799,16.113,62.012,-62.500,8.789,-1.465
1709251148.803,34.668,59.082,0.977,31.738,1.953
1709251148.807,61.523,54.688,41.016,31.738,29.297
1709251148.811,49.805,57.129,-22.949,28.320,47.852
1709251148.815,10.254,61.035,-32.227,10.742,31.738
1709251148.817,7.324,58.105,3.906,1.465,11.230
1709251148.821,27.832,52.734,22.461,35.645,21.484
1709251148.825,45.410,59.082,-38.086,43.945,8.301
1709251148.829,15.137,59.570,-59.570,23.438,-20.020
1709251148.833,-3.418,51.758,-11.230,16.602,7.812
1709251148.837,38.086,52.734,-13.672,41.016,45.898
1709251148.841,59.570,56.641,-61.035,49.805,20.996
1709251148.844,37.109,53.711,-65.918,26.855,10.742
1709251148.848,7.812,48.340,-9.277,18.066,27.344
1709251148.852,21.973,50.293,-20.508,43.457,16.113
1709251148.856,63.965,49.316,-50.293,55.664,10.254
1709251148.860,54.688,47.363,-33.203,40.039,28.320
1709251148.863,16.602,47.852,-4.883,36.621,22.949
1709251148.867,21.484,48.340,-22.949,36.621,10.742
1709251148.871,49.805,44.922,-41.016,35.156,27.344
1709251148.875,62.500,42.969,-59.570,42.969,14.160
1709251148.879,35.645,46.387,-88.379,50.293,5.371
1709251148.883,22.949,48.340,-102.051,41.992,23.438
1709251148.887,37.109,46.387,-112.305,50.781,18.066
1709251148.890,51.270,40.039,-83.984,37.598,30.273
1709251148.894,26.855,40.527,-89.355,14.648,46.387
1709251148.898,12.695,38.574,-148.438,20.020,26.367
1709251148.902,51.758,36.133,-140.625,45.410,20.996
1709251148.906,71.777,44.922,-133.301,61.035,1.953
1709251148.923,58.105,46.875,-143.555,47.363,20.508
1709251148.927,24.902,45.898,-195.312,40.039,42.969
1709251148.931,27.344,46.875,-187.988,45.410,28.320
1709251148.935,63.965,43.457,-159.668,46.387,48.340
1709251148.939,60.059,41.504,-206.055,55.176,58.594
1709251148.943,33.203,44.434,-250.000,49.805,35.645
1709251148.947,36.133,44.434,-250.977,34.180,0.000
1709251148.950,58.105,37.109,-173.340,25.391,14.648
1709251148.954,57.129,37.109,-206.055,21.973,46.875
1709251148.958,24.414,42.969,-264.160,23.926,39.062
1709251148.962,23.926,45.410,-246.094,29.297,40.527
1709251148.966,69.336,43.457,-235.840,37.109,56.641
1709251148.968,77.148,42.480,-283.203,42.480,36.133
1709251148.972,33.691,42.480,-302.246,40.527,28.320
1709251148.976,6.348,37.109,-301.758,31.250,30.762
1709251148.980,49.316,35.645,-292.969,40.527,41.992
1709251148.984,85.938,36.133,-316.406,51.270,57.129
1709251148.988,74.219,36.133,-366.699,48.828,43.945
1709251148.992,31.250,34.180,-345.703,22.949,35.645
1709251148.995,19.043,29.785,-302.246,25.879,25.879
1709251148.999,45.410,28.320,-296.387,48.828,41.504
1709251149.003,51.758,35.156,-376.465,32.227,11.719
1709251149.007,36.133,35.645,-335.449,23.926,-1.465
1709251149.011,41.016,32.227,-244.629,30.273,39.062
1709251149.012,73.730,35.156,-282.715,56.641,55.176
1709251149.016,64.453,39.062,-291.504,54.199,35.156
1709251149.020,16.113,41.016,-264.648,24.414,26.367
1709251149.024,2.441,42.480,-240.723,25.391,57.617
1709251149.028,57.129,42.969,-245.117,46.875,79.102
1709251149.032,74.707,44.434,-262.695,64.941,38.574
1709251149.036,19.531,47.852,-228.027,42.480,42.480
1709251149.039,-10.742,48.340,-211.426,20.996,36.133
1709251149.043,25.391,44.922,-233.398,33.203,12.695
1709251149.047,57.617,47.363,-239.746,38.086,-5.859
1709251149.051,46.875,38.574,-175.781,24.902,-13.672
1709251149.055,31.738,36.621,-161.133,20.508,13.184
1709251149.057,42.969,48.340,-173.828,35.156,27.832
1709251149.061,58.594,48.828,-139.160,45.898,39.062
1709251149.065,35.156,47.363,-137.695,23.438,42.969
1709251149.069,13.184,48.828,-166.016,7.812,8.789
1709251149.073,26.855,49.805,-146.484,23.438,11.719
1709251149.077,59.082,45.898,-112.305,53.223,44.922
1709251149.081,66.895,48.340,-138.184,58.594,20.020
1709251149.084,25.391,50.293,-158.691,32.227,1.465
1709251149.088,11.230,46.387,-161.621,41.016,11.719
1709251149.092,41.504,39.062,-99.609,63.965,39.062
1709251149.096,63.965,36.621,-93.262,44.922,46.387
1709251149.100,38.086,31.738,-160.645,21.484,21.973
1709251149.103,12.207,30.762,-161.621,3.906,34.668
1709251149.107,47.363,33.691,-114.258,20.508,41.992
1709251149.111,74.219,28.320,-103.516,43.945,28.320
1709251149.115,59.570,29.785,-167.969,32.715,11.719
1709251149.119,40.527,28.809,-169.922,22.461,-7.324
1709251149.123,50.293,17.578,-121.582,36.621,-22.461
1709251149.127,68.848,8.301,-89.844,48.340,4.395
1709251149.130,77.637,10.742,-140.137,41.504,8.301
1709251149.134,59.570,10.742,-155.762,25.879,-8.301
1709251149.138,43.457,1.465,-78.125,24.414,8.301
1709251149.142,69.824,-2.930,-90.820,46.875,34.668
1709251149.146,102.051,-1.465,-115.723,39.551,30.273
1709251149.147,76.172,-0.488,-121.094,25.879,12.695
1709251149.151,32.227,-6.836,-105.957,26.367,-6.348
1709251149.155,54.199,-16.113,-71.777,47.852,48.828
1709251149.159,61.523,-15.137,-108.398,65.430,64.941
1709251149.163,20.996,-5.371,-140.137,31.738,3.906
1709251149.167,-0.977,-0.977,-117.676,7.812,26.855
1709251149.171,18.066,-4.883,-98.633,38.086,51.270
1709251149.174,40.527,-2.930,-128.418,53.223,30.762
1709251149.178,33.691,-4.883,-108.398,37.109,33.691
1709251149.182,8.789,-8.301,-58.105,26.367,34.180
1709251149.186,24.902,-3.418,-72.266,38.086,44.434
1709251149.190,59.082,-4.395,-62.988,59.570,73.242
1709251149.193,49.316,-5.859,-65.918,48.340,79.590
1709251149.197,17.578,-4.883,-93.262,29.785,59.570
1709251149.201,15.625,-4.395,-128.418,32.227,3.906
1709251149.205,54.199,-4.395,-83.008,51.758,15.625
1709251149.209,65.430,-1.953,-62.012,57.617,66.406
1709251149.213,37.598,1.465,-122.559,38.086,21.973
1709251149.217,23.438,4.883,-132.812,29.297,-14.160
1709251149.220,45.410,8.301,-106.445,45.410,-8.789
1709251149.224,70.312,9.277,-40.039,43.457,13.184
1709251149.228,46.387,16.602,-80.078,15.625,41.504
1709251149.232,2.930,21.484,-124.512,15.625,30.273
1709251149.236,16.602,24.414,-88.867,30.762,45.898
1709251149.237,50.781,17.090,-104.980,29.297,43.457
1709251149.241,53.223,59.082,-135.742,22.461,48.828
1709251149.245,16.602,201.172,-149.414,22.461,38.086
1709251149.249,18.066,285.156,-118.164,13.184,21.484
1709251149.253,66.406,293.945,-102.539,18.555,40.039
1709251149.257,66.895,292.969,-140.137,35.156,23.438
1709251149.261,20.996,281.738,-170.410,24.414,3.906
1709251149.264,6.836,271.484,-117.188,8.301,12.695
1709251149.268,37.109,266.113,-61.035,21.484,50.781
1709251149.272,57.617,259.766,-119.141,28.809,67.383
1709251149.276,53.711,248.047,-139.648,22.949,28.320
1709251149.280,24.902,235.352,-91.797,14.160,8.789
1709251149.298,21.973,218.750,-72.266,29.297,43.457
1709251149.302,47.852,208.496,-108.398,51.270,41.016
1709251149.306,39.551,202.148,-116.211,47.363,39.551
1709251149.310,23.438,190.430,-87.891,22.461,56.641
1709251149.314,29.785,182.617,-75.195,26.855,45.410
1709251149.318,59.082,174.805,-102.051,54.688,55.176
1709251149.322,57.129,166.992,-119.629,27.344,21.484
1709251149.325,20.020,159.668,-71.777,-5.371,-1.953
1709251149.329,7.812,153.809,-71.777,7.812,28.320
1709251149.333,41.504,146.484,-72.754,32.715,49.316
1709251149.337,62.500,142.578,-90.332,41.992,39.551
1709251149.341,34.668,142.578,-115.723,33.691,18.066
1709251149.342,17.578,137.695,-111.328,35.645,-2.441
1709251149.346,62.988,127.930,-82.520,32.227,10.254
1709251149.350,83.984,120.605,-55.176,33.691,33.203
1709251149.354,41.016,119.141,-73.242,41.504,65.430
1709251149.358,12.695,116.699,-106.445,26.367,61.523
1709251149.362,30.762,113.281,-107.422,43.457,24.414
1709251149.366,68.848,110.352,-78.613,57.617,29.785
1709251149.369,64.453,105.957,-68.359,41.992,50.781
1709251149.373,26.855,95.703,-89.844,40.039,55.664
1709251149.377,42.480,99.121,-122.070,46.875,21.973
1709251149.381,67.871,98.633,-48.828,47.852,28.320
1709251149.385,42.480,93.750,-37.598,58.105,54.688
1709251149.388,14.648,83.008,-109.375,53.223,40.039
1709251149.392,24.414,77.148,-87.891,35.645,42.480
1709251149.396,60.547,88.379,-52.246,46.387,54.199
1709251149.400,60.547,89.844,-72.266,53.223,42.969
1709251149.404,25.879,86.426,-103.516,41.504,48.828
1709251149.408,7.812,84.473,-112.793,42.480,37.109
1709251149.412,44.922,82.031,-64.453,59.570,13.672
1709251149.415,75.684,77.637,-44.434,62.988,25.391
1709251149.419,43.945,78.613,-121.582,50.781,14.160
1709251149.423,29.297,76.172,-121.094,53.223,-0.977
1709251149.427,41.992,68.848,-26.855,67.383,19.531
1709251149.431,56.641,66.895,-47.363,70.801,44.922
1709251149.432,40.527,65.918,-90.332,56.152,66.406
1709251149.436,-2.441,66.406,-110.352,40.039,30.273
1709251149.440,7.812,63.965,-83.008,52.734,22.949
1709251149.444,50.293,61.035,-75.195,62.988,48.340
1709251149.448,62.500,57.129,-105.957,54.199,40.527
1709251149.452,21.484,58.105,-117.676,52.734,45.898
1709251149.456,13.672,62.012,-104.492,56.641,41.992
1709251149.459,58.105,63.477,-78.613,55.176,47.363
1709251149.463,61.035,63.477,-140.625,44.922,26.855
1709251149.467,34.180,58.594,-132.812,32.227,-4.395
1709251149.471,37.109,56.152,-66.406,41.016,36.133
1709251149.475,38.574,55.176,-112.305,59.570,42.480
1709251149.477,45.410,57.617,-130.371,53.711,24.414
1709251149.481,34.180,61.035,-137.207,26.855,2.441
1709251149.485,4.883,59.082,-147.461,14.160,-5.859
1709251149.489,28.320,57.617,-138.184,37.598,13.672
1709251149.493,62.012,56.641,-123.535,52.734,43.457
1709251149.497,52.246,54.688,-142.578,34.668,51.758
1709251149.501,18.555,49.805,-148.438,16.113,27.344
1709251149.504,16.113,50.293,-150.879,32.715,6.836
1709251149.508,44.434,51.270,-116.699,46.387,10.254
1709251149.512,55.176,50.781,-56.641,25.879,66.406
1709251149.516,29.785,52.246,-104.004,6.836,53.223
1709251149.520,5.371,52.734,-122.070,20.020,32.715
1709251149.523,30.762,48.828,-79.102,54.199,61.523
1709251149.527,59.570,46.387,-88.379,54.688,41.992
1709251149.531,35.156,49.805,-121.094,40.039,27.344
1709251149.535,2.441,49.316,-113.281,45.410,28.320
1709251149.539,21.484,43.945,-90.820,69.336,39.062
1709251149.543,63.965,44.434,-120.117,68.359,20.508
1709251149.547,55.176,44.434,-143.066,28.809,24.902
1709251149.550,38.086,44.434,-177.246,14.648,16.602
1709251149.554,50.781,39.062,-120.605,32.715,2.441
1709251149.558,66.895,37.109,-86.914,53.223,36.621
1709251149.562,61.035,49.316,-175.781,53.223,18.066
1709251149.566,28.809,54.199,-182.617,41.504,19.043
1709251149.568,14.648,50.781,-149.902,40.527,32.715
1709251149.572,45.898,47.363,-142.090,23.438,32.715
1709251149.576,65.918,41.992,-205.078,21.973,13.184
1709251149.580,37.598,37.109,-216.309,23.438,3.418
1709251149.584,0.000,44.434,-166.992,13.672,20.020
1709251149.588,27.344,46.875,-170.898,39.062,39.551
1709251149.592,61.523,46.875,-212.402,58.105,30.762
1709251149.595,35.645,48.828,-209.473,44.922,11.719
1709251149.599,1.465,45.410,-146.973,29.785,29.297
1709251149.603,19.531,44.922,-159.180,29.785,54.688
1709251149.607,44.922,47.363,-187.012,45.898,50.781
1709251149.611,46.387,52.734,-207.520,33.691,26.855
1709251149.612,21.973,54.199,-216.309,10.254,10.254
1709251149.616,21.973,53.711,-206.543,30.273,27.344
1709251149.620,66.406,53.711,-205.078,50.781,55.664
1709251149.624,68.359,58.105,-227.051,61.035,33.203
1709251149.628,17.090,55.664,-244.141,58.105,13.672
1709251149.632,12.695,53.711,-249.512,46.387,11.719
1709251149.636,64.941,59.570,-272.949,55.664,0.488
1709251149.639,61.523,55.664,-253.418,63.477,11.719
1709251149.643,15.137,53.223,-228.516,43.945,37.598
1709251149.647,8.301,53.711,-294.434,35.156,31.250
1709251149.651,41.504,52.246,-301.270,43.945,22.461
1709251149.655,63.965,62.988,-280.273,43.945,50.293
1709251149.672,47.852,65.918,-322.754,35.156,62.012
1709251149.676,30.762,63.477,-376.465,40.039,22.461
1709251149.680,39.062,59.570,-363.770,54.199,0.977
1709251149.684,64.941,56.641,-345.215,61.523,10.742
1709251149.688,63.477,66.406,-389.648,52.246,26.367
1709251149.692,40.039,72.266,-456.055,41.504,30.762
1709251149.696,41.016,70.801,-442.383,58.105,26.855
1709251149.699,62.988,63.965,-395.020,72.754,27.344
1709251149.703,83.008,70.312,-408.691,77.637,38.086
1709251149.707,66.895,81.543,-487.305,70.312,35.645
1709251149.711,45.898,74.219,-483.887,53.223,22.461
1709251149.715,69.824,65.430,-418.945,63.477,38.086
1709251149.717,81.055,61.035,-490.723,73.242,39.062
1709251149.721,55.176,55.176,-535.156,66.895,37.109
1709251149.725,40.527,59.570,-538.086,62.012,44.922
1709251149.729,67.383,59.570,-553.711,67.383,38.086
1709251149.733,89.844,58.105,-587.891,73.730,39.062
1709251149.737,66.895,59.082,-639.648,50.293,15.137
1709251149.741,19.531,56.641,-640.137,23.438,9.766
1709251149.744,25.879,51.270,-610.352,28.320,33.203
1709251149.748,65.918,50.293,-638.672,50.781,62.988
1709251149.752,62.988,60.547,-747.070,57.129,45.898
1709251149.756,38.086,58.105,-734.863,26.855,4.883
1709251149.760,22.949,46.875,-665.039,29.785,20.020
1709251149.762,43.945,47.852,-714.355,60.059,15.137
1709251149.766,67.383,50.293,-746.582,44.434,15.137
1709251149.770,38.574,51.758,-752.441,32.715,26.855
1709251149.774,9.277,53.711,-764.160,43.945,41.016
1709251149.778,26.367,41.016,-781.250,74.219,57.129
1709251149.782,54.688,40.527,-805.176,79.102,42.969
1709251149.786,37.109,52.246,-797.852,43.457,28.320
1709251149.789,-0.488,52.246,-781.250,21.973,24.902
1709251149.793,30.273,53.711,-815.918,50.293,16.113
1709251149.797,81.543,55.176,-794.434,56.641,36.621
1709251149.801,49.805,49.805,-755.371,27.344,54.688
1709251149.805,0.488,52.734,-826.172,50.781,24.902
1709251149.808,21.484,54.688,-813.965,77.637,7.812
1709251149.812,48.828,47.363,-736.328,56.641,31.738
1709251149.816,40.039,46.387,-748.535,42.969,60.059
1709251149.820,15.625,51.270,-781.738,35.645,59.570
1709251149.824,17.090,50.781,-780.762,31.738,33.203
1709251149.828,64.941,51.270,-757.812,45.410,16.113
1709251149.832,76.172,57.617,-768.555,46.875,20.020
1709251149.835,38.574,61.035,-800.781,47.852,2.930
1709251149.839,18.555,60.547,-814.453,58.105,-16.113
1709251149.843,41.016,58.105,-740.723,77.148,-3.906
1709251149.847,74.219,56.152,-722.168,79.102,26.855
1709251149.851,68.848,59.570,-817.871,59.570,2.441
1709251149.852,42.480,57.129,-813.477,50.781,-1.465
1709251149.856,46.875,48.340,-749.512,69.336,37.109
1709251149.860,73.242,47.363,-778.809,83.008,36.621
1709251149.864,71.289,52.734,-829.102,62.988,29.297
1709251149.868,24.414,51.270,-816.406,59.082,56.641
1709251149.872,46.387,52.246,-820.801,65.918,19.043
1709251149.876,97.168,50.293,-774.414,73.242,17.090
1709251149.879,75.684,51.758,-804.688,77.148,39.551
1709251149.883,41.016,57.129,-852.051,56.641,13.672
1709251149.887,31.250,53.711,-738.281,38.574,33.203
1709251149.891,67.383,57.129,-734.375,64.453,48.828
1709251149.895,91.797,58.105,-783.691,72.266,25.879
1709251149.912,56.641,55.176,-787.598,52.246,9.766
1709251149.916,34.180,63.477,-780.273,52.246,2.930
1709251149.920,62.988,71.289,-759.277,52.246,7.324
1709251149.924,85.938,70.801,-741.699,62.988,29.297
1709251149.928,67.871,68.848,-747.559,56.641,24.902
1709251149.932,39.062,71.289,-760.254,45.410,27.344
1709251149.936,53.223,73.242,-733.398,62.012,39.551
1709251149.939,88.379,71.289,-763.672,74.707,4.883
1709251149.943,86.426,72.754,-737.793,76.660,1.953
1709251149.947,56.641,70.312,-683.105,56.152,30.273
1709251149.951,61.523,65.918,-734.375,54.688,56.641
1709251149.955,87.891,63.477,-745.117,81.055,33.691
1709251149.942,93.750,64.941,-722.656,84.961,10.742
1709251149.946,76.172,67.871,-739.746,72.266,29.785
1709251149.950,51.758,68.848,-770.996,72.266,26.855
1709251149.954,64.941,68.359,-750.000,72.754,22.949
1709251149.958,87.402,64.941,-747.070,73.242,7.324
1709251149.962,63.965,65.918,-789.551,62.988,-14.160
1709251149.966,38.086,67.383,-780.762,38.086,5.371
1709251149.969,57.617,62.500,-730.469,39.062,28.809
1709251149.973,90.332,66.406,-748.047,59.082,41.992
1709251149.977,70.312,70.312,-787.109,58.105,17.578
1709251149.981,42.480,65.918,-814.941,50.781,7.324
1709251149.985,53.223,67.383,-793.457,60.547,15.137
1709251149.987,62.500,66.895,-705.078,79.590,41.504
1709251149.991,61.523,68.848,-766.113,65.430,41.016
1709251149.995,43.945,72.266,-805.664,44.434,9.766
1709251149.999,42.480,68.359,-767.578,51.270,3.906
1709251150.003,74.219,64.941,-752.930,54.688,-5.371
1709251150.007,95.215,73.242,-772.949,52.734,10.742
1709251150.011,65.918,81.543,-811.523,51.758,3.418
1709251150.014,31.250,73.730,-759.277,40.039,-5.371
1709251150.018,59.082,70.801,-700.195,62.500,27.344
1709251150.022,84.961,71.777,-751.465,78.613,56.641
1709251150.026,69.824,70.312,-779.785,55.176,50.293
1709251150.030,52.734,76.660,-767.578,48.828,37.109
1709251150.033,68.359,78.613,-725.098,63.965,30.273
1709251150.037,103.516,74.219,-743.164,77.148,45.410
1709251150.041,96.680,72.266,-796.387,75.195,20.020
1709251150.045,57.617,76.172,-738.281,56.641,34.180
1709251150.049,72.266,79.590,-731.934,56.152,67.871
1709251150.053,115.234,80.566,-798.828,81.543,41.504
1709251150.057,99.121,80.078,-801.270,77.148,0.488
1709251150.060,59.570,77.148,-745.605,64.453,12.207
1709251150.064,51.270,74.707,-768.066,69.824,46.387
1709251150.068,83.984,70.801,-806.641,95.215,26.367
1709251150.072,109.375,71.289,-791.016,88.379,30.273
1709251150.076,84.473,76.660,-794.434,55.664,47.852
1709251150.093,66.406,76.660,-820.801,57.617,46.875
1709251150.097,75.684,72.754,-791.504,70.312,52.246
1709251150.101,85.938,76.660,-815.430,82.031,29.785
1709251150.105,76.660,78.613,-821.289,83.984,34.180
1709251150.109,49.805,78.125,-801.758,66.895,51.270
1709251150.113,59.082,80.078,-854.492,64.941,16.113
1709251150.117,90.332,73.730,-805.176,75.195,19.043
1709251150.120,80.566,67.871,-760.742,75.684,42.480
1709251150.124,49.805,74.219,-830.078,73.730,12.207
1709251150.128,66.406,78.613,-810.059,61.035,-23.926
1709251150.132,98.145,73.242,-726.562,61.523,13.184
1709251150.136,101.562,74.219,-744.629,55.176,42.969
1709251150.137,73.730,92.285,-782.227,46.387,19.531
1709251150.141,64.453,101.074,-732.422,57.129,15.137
1709251150.145,102.051,103.027,-673.340,70.312,39.062
1709251150.149,110.840,113.770,-666.504,66.895,47.363
1709251150.153,76.172,117.188,-683.105,51.270,34.668
1709251150.157,54.199,118.164,-675.781,56.152,5.371
1709251150.161,78.125,114.258,-598.145,83.008,26.855
1709251150.164,95.703,106.934,-555.664,79.590,40.039
1709251150.168,67.383,103.027,-606.934,69.336,9.766
1709251150.172,53.223,100.586,-604.004,66.895,-11.230
1709251150.176,67.383,91.309,-495.605,74.707,-0.488
1709251150.180,94.727,84.961,-489.746,104.492,34.668
1709251150.182,95.215,85.449,-500.000,104.492,44.922
1709251150.186,54.688,88.379,-488.281,88.379,38.574
1709251150.190,41.504,89.355,-455.078,66.406,60.059
1709251150.194,85.449,89.355,-446.777,58.594,50.781
1709251150.198,106.445,90.820,-454.102,74.707,31.738
1709251150.202,79.590,91.309,-442.383,68.359,43.945
1709251150.206,58.105,91.309,-415.039,58.105,39.551
1709251150.209,83.984,88.867,-379.395,80.566,55.176
1709251150.213,99.121,88.867,-431.152,100.098,29.297
1709251150.217,66.406,92.285,-420.898,80.566,-33.203
1709251150.221,42.480,84.961,-343.262,41.016,-11.230
1709251150.225,76.172,82.520,-365.234,52.246,43.457
1709251150.228,112.793,92.285,-384.277,72.266,39.551
1709251150.232,97.656,92.285,-373.535,68.848,31.738
1709251150.236,66.406,91.309,-384.277,63.965,41.016
1709251150.240,81.055,85.938,-389.160,61.523,40.039
1709251150.244,120.605,72.754,-369.141,61.035,51.270
1709251150.248,101.074,74.219,-395.508,55.664,52.734
1709251150.252,50.293,77.637,-403.320,51.758,14.160
1709251150.255,38.086,72.754,-391.113,71.289,30.273
1709251150.259,61.523,69.824,-374.023,104.004,41.504
1709251150.263,71.289,69.824,-325.684,79.590,41.504
1709251150.267,41.992,73.242,-364.258,37.598,57.129
1709251150.271,17.090,70.801,-374.512,26.855,49.316
1709251150.272,58.594,68.359,-317.383,52.734,46.875
1709251150.276,80.078,70.312,-320.801,71.289,29.297
1709251150.280,48.340,69.336,-350.098,55.176,31.738
1709251150.284,26.855,64.453,-338.379,50.293,35.156
1709251150.288,39.062,59.082,-303.711,48.828,41.016
1709251150.292,67.871,58.594,-317.383,46.875,41.504
1709251150.296,67.871,61.523,-326.660,43.457,45.410
1709251150.299,47.852,64.453,-361.328,30.273,16.602
1709251150.303,36.133,61.523,-302.246,30.273,24.414
1709251150.307,55.664,53.223,-253.906,56.152,74.707
1709251150.311,72.266,52.246,-339.844,63.477,60.059
1709251150.315,35.156,64.941,-375.977,44.922,36.133
