timestamps,TP9,AF7,AF8,TP10,Right AUX
1709251376.082,-10.742,20.996,354.004,2.441,82.031
1709251376.086,6.836,23.926,334.473,20.996,72.266
1709251376.090,27.344,28.320,258.301,22.949,42.480
1709251376.094,30.762,29.297,262.695,9.277,49.316
1709251376.098,25.879,29.785,215.820,-0.488,32.227
1709251376.102,17.090,27.832,142.578,2.930,40.527
1709251376.106,22.949,30.762,-71.777,32.715,15.625
1709251376.109,24.414,30.273,-67.383,39.062,6.348
1709251376.113,1.953,26.367,211.914,15.625,30.762
1709251376.117,0.488,28.809,166.504,-1.953,21.484
1709251376.121,30.762,23.926,169.922,10.742,19.043
1709251376.125,33.203,21.484,281.738,25.391,33.691
1709251376.142,12.695,32.227,233.887,34.180,29.297
1709251376.146,7.812,36.621,98.633,34.180,15.625
1709251376.150,14.160,33.203,142.090,29.297,32.227
1709251376.154,25.391,30.762,275.879,6.836,41.992
1709251376.158,17.578,30.273,308.594,-16.113,69.336
1709251376.162,7.812,26.367,44.434,-9.277,56.152
1709251376.166,28.320,22.461,-114.746,4.883,29.297
1709251376.169,33.691,21.973,169.922,20.020,55.664
1709251376.173,13.672,23.438,276.367,32.227,29.297
1709251376.177,8.789,26.367,16.602,40.039,21.484
1709251376.181,19.043,27.832,-19.531,31.738,71.777
1709251376.185,35.645,24.414,256.348,16.602,56.152
1709251376.188,36.621,25.391,257.324,16.602,42.480
1709251376.192,24.414,32.227,160.156,16.113,74.707
1709251376.196,13.672,34.180,81.055,10.254,34.668
1709251376.200,25.879,29.785,173.340,31.250,24.414
1709251376.204,32.227,28.809,232.910,52.734,47.363
1709251376.208,5.859,30.762,20.508,43.945,8.789
1709251376.212,-11.230,27.832,-81.055,27.832,8.789
1709251376.215,13.184,28.809,101.074,21.484,60.059
1709251376.219,46.387,28.320,173.340,33.203,48.828
1709251376.223,42.969,31.250,-141.602,23.926,9.766
1709251376.227,20.020,37.109,-187.988,2.441,2.441
1709251376.231,24.902,34.180,150.391,18.555,16.602
1709251376.232,49.805,32.227,223.633,40.527,34.180
1709251376.236,54.688,33.203,199.707,40.039,43.457
1709251376.240,40.039,32.227,196.777,16.602,31.738
1709251376.244,23.926,33.203,222.168,17.578,41.016
1709251376.248,41.992,32.715,239.258,33.203,38.086
1709251376.252,51.758,30.762,133.789,33.203,20.020
1709251376.256,36.133,35.645,60.547,30.273,21.973
1709251376.259,30.273,34.668,216.309,37.109,43.457
1709251376.263,54.688,34.668,147.461,45.898,15.137
1709251376.267,71.289,36.133,66.406,36.621,6.348
1709251376.271,42.969,34.668,292.969,27.832,41.016
1709251376.275,21.973,39.062,189.453,29.785,9.277
1709251376.277,33.691,38.086,148.926,29.297,0.488
1709251376.281,38.574,33.691,382.812,22.461,39.551
1709251376.285,26.367,35.156,502.930,32.227,57.129
1709251376.289,11.230,33.691,352.051,26.367,16.113
1709251376.293,28.320,31.738,281.738,19.531,5.859
1709251376.297,58.594,37.598,360.352,37.598,49.316
1709251376.301,52.734,39.062,333.008,39.551,44.922
1709251376.304,26.367,40.039,238.281,27.344,4.395
1709251376.308,13.184,40.039,26.855,34.668,-3.906
1709251376.312,33.203,32.227,222.656,51.758,42.969
1709251376.316,43.457,25.391,539.551,53.711,80.078
1709251376.320,30.273,31.738,354.492,42.480,50.293
1709251376.338,24.414,37.598,223.145,30.273,19.043
1709251376.342,34.180,35.645,334.961,24.414,20.996
1709251376.346,41.504,34.668,392.090,37.598,32.227
1709251376.350,34.668,39.062,256.348,43.457,25.391
1709251376.354,15.625,37.598,125.000,25.391,-10.254
1709251376.358,27.832,34.180,210.449,35.645,-6.836
1709251376.362,40.039,31.738,254.395,47.852,-17.090
1709251376.365,29.785,32.227,145.020,48.340,-15.137
1709251376.369,4.883,34.180,65.430,37.598,8.789
1709251376.373,-12.207,33.203,319.824,19.043,32.227
1709251376.377,18.066,33.203,475.098,12.695,42.480
1709251376.381,26.367,35.645,391.602,3.418,25.879
1709251376.367,16.113,34.180,332.520,4.395,31.738
1709251376.371,14.160,31.250,349.609,7.324,32.715
1709251376.375,25.391,32.227,374.023,10.254,30.273
1709251376.379,38.574,36.133,356.445,33.203,39.062
1709251376.383,13.672,37.598,277.832,40.527,41.016
1709251376.387,-0.977,37.109,158.203,26.367,34.668
1709251376.391,27.344,40.039,137.207,27.832,29.785
1709251376.394,47.363,37.109,194.336,31.250,22.949
1709251376.398,37.598,27.832,272.949,19.531,32.715
1709251376.402,12.695,31.250,268.555,21.484,40.039
1709251376.406,20.996,38.574,175.293,19.531,22.461
1709251376.410,43.945,34.668,-36.621,24.414,1.465
1709251376.412,23.926,25.879,72.754,30.762,34.180
1709251376.416,17.090,32.715,269.531,27.832,70.312
1709251376.420,31.738,39.062,77.148,35.156,44.434
1709251376.424,38.574,30.762,12.695,40.039,33.203
1709251376.428,41.016,28.809,179.688,49.805,31.738
1709251376.432,21.484,36.621,79.102,62.500,10.742
1709251376.436,22.949,36.621,-144.043,39.551,-4.395
1709251376.439,62.988,35.645,-192.871,32.227,0.488
1709251376.443,69.824,36.621,57.129,33.203,31.738
1709251376.447,41.504,40.039,161.133,21.484,28.809
1709251376.451,23.438,37.109,-9.766,26.855,24.414
1709251376.455,23.438,28.320,9.766,41.016,29.297
1709251376.457,34.180,24.902,193.359,56.152,48.340
1709251376.461,24.902,32.715,138.184,48.828,52.246
1709251376.465,-1.953,34.180,-41.992,17.090,24.902
1709251376.469,7.324,27.344,-19.043,3.906,31.738
1709251376.473,40.527,21.973,86.914,20.508,41.504
1709251376.477,52.246,26.855,-29.785,30.273,32.715
1709251376.481,29.297,39.062,-375.000,32.227,11.719
1709251376.484,10.742,34.668,-289.551,43.457,35.156
1709251376.488,29.785,30.273,53.711,50.293,49.316
1709251376.492,36.621,31.250,17.578,54.199,33.691
1709251376.496,4.883,35.645,-190.918,30.273,3.418
1709251376.500,0.488,40.527,-227.051,6.836,-4.883
1709251376.503,30.273,39.062,18.066,33.203,35.156
1709251376.507,49.316,41.504,-18.066,50.781,31.738
1709251376.511,21.973,40.039,-155.762,30.762,45.410
1709251376.515,-1.465,39.062,-113.281,12.695,36.621
1709251376.519,20.508,40.527,-76.172,25.391,16.602
1709251376.523,54.199,41.992,-259.277,49.805,4.883
1709251376.527,52.734,40.527,-414.062,29.297,-2.930
1709251376.530,10.742,36.621,-248.535,3.906,27.344
1709251376.534,-7.812,35.645,-169.434,13.672,57.129
1709251376.538,14.648,35.156,-258.301,20.508,54.199
1709251376.542,23.926,33.691,-240.723,29.785,80.566
1709251376.546,12.207,35.156,-243.164,27.344,47.852
1709251376.563,4.395,32.715,-337.891,23.926,14.648
1709251376.567,32.227,27.832,-366.699,40.039,42.480
1709251376.571,40.039,30.273,-434.082,28.809,17.578
1709251376.575,20.996,35.156,-407.715,17.090,17.578
1709251376.579,26.367,31.250,-412.598,21.484,58.594
1709251376.583,36.621,33.203,-576.172,28.809,44.922
1709251376.587,50.781,38.574,-658.203,36.133,3.906
1709251376.590,39.551,40.039,-522.949,24.902,27.344
1709251376.594,33.203,38.086,-529.785,30.273,61.523
1709251376.598,40.039,35.645,-702.148,53.711,49.805
1709251376.602,33.203,39.062,-536.621,48.828,59.570
1709251376.606,42.480,43.457,-437.988,26.367,47.363
1709251376.607,41.992,44.922,-665.039,32.715,-5.859
1709251376.611,23.926,40.527,-632.812,53.711,33.203
1709251376.615,27.832,34.180,-409.180,70.801,78.613
1709251376.619,39.062,36.133,-374.512,63.477,70.312
1709251376.623,27.832,42.480,-568.848,22.461,29.785
1709251376.627,20.020,41.016,-762.695,10.254,-10.254
1709251376.631,32.227,37.598,-630.371,-0.977,22.949
1709251376.634,39.551,38.086,-404.785,0.488,47.363
1709251376.638,25.879,41.992,-645.996,26.367,0.977
1709251376.642,12.207,40.039,-928.711,35.645,-7.812
1709251376.646,28.809,34.668,-613.281,44.922,11.230
1709251376.650,56.152,32.227,-388.672,39.551,8.301
1709251376.652,49.805,28.809,-449.219,13.184,33.203
1709251376.656,29.785,37.598,-492.188,3.906,38.574
1709251376.660,30.762,38.086,-426.758,22.461,32.715
1709251376.664,41.992,34.668,-401.367,23.926,8.789
1709251376.668,38.574,39.551,-453.125,16.113,21.484
1709251376.672,25.391,40.039,-571.289,22.949,25.879
1709251376.676,11.230,31.738,-655.762,5.859,-14.648
1709251376.679,15.625,28.320,-453.613,23.926,38.086
1709251376.683,21.484,35.645,-690.430,51.270,-9.277
1709251376.687,11.230,35.645,-759.766,27.344,-20.508
1709251376.691,7.324,28.320,-419.434,15.625,31.250
1709251376.695,29.785,27.832,-448.730,25.391,9.766
1709251376.697,31.250,30.273,-413.574,22.461,19.043
1709251376.701,13.184,32.227,-347.168,10.254,27.344
1709251376.705,13.184,32.715,-355.469,19.043,54.199
1709251376.709,16.602,31.250,-391.602,47.852,43.457
1709251376.713,28.320,27.344,-364.746,49.805,18.555
1709251376.717,25.879,33.691,-381.348,23.926,20.020
1709251376.721,5.371,33.203,-435.547,-1.465,15.625
1709251376.724,19.043,24.414,-481.445,15.137,9.277
1709251376.728,42.480,33.691,-404.785,38.574,22.461
1709251376.732,42.969,41.016,-40.039,14.160,67.383
1709251376.736,25.391,42.480,-86.426,7.324,40.039
1709251376.740,20.508,39.551,-235.840,30.762,13.672
1709251376.742,41.016,36.133,-31.738,43.457,20.508
1709251376.746,37.598,37.598,162.109,30.273,28.320
1709251376.750,17.578,37.109,123.535,23.926,35.645
1709251376.754,27.832,37.109,45.898,28.809,32.227
1709251376.758,59.570,37.109,147.461,28.320,22.949
1709251376.762,61.523,38.574,171.387,35.156,18.555
1709251376.766,31.250,38.086,44.922,40.527,6.836
1709251376.769,11.230,44.922,-147.949,41.016,9.277
1709251376.773,21.484,42.480,-37.109,47.852,11.719
1709251376.777,49.805,35.156,270.508,49.316,7.812
1709251376.781,53.223,40.527,196.289,36.621,3.906
1709251376.785,32.715,41.992,112.793,33.691,16.602
1709251376.803,19.531,38.086,256.348,32.715,54.688
1709251376.807,28.320,38.086,361.328,33.691,81.543
1709251376.811,29.297,41.992,193.848,36.621,50.293
1709251376.815,18.066,44.434,37.109,35.156,14.160
1709251376.819,30.273,39.551,115.723,34.180,1.953
1709251376.823,49.805,36.621,154.785,40.039,17.090
1709251376.827,52.734,41.504,11.719,40.039,26.367
1709251376.830,42.969,44.922,-199.707,34.180,-22.461
1709251376.834,25.879,44.434,21.973,32.715,20.996
1709251376.838,27.344,44.922,203.125,23.438,52.246
1709251376.842,43.457,41.016,129.883,20.996,36.133
1709251376.846,25.879,37.109,66.406,41.016,50.293
1709251376.832,11.719,37.109,1.953,33.691,29.297
1709251376.836,33.691,38.086,-37.109,32.227,10.254
1709251376.840,47.363,37.598,3.906,53.223,41.504
1709251376.844,40.527,34.668,25.879,42.480,65.918
1709251376.848,30.273,33.691,-95.703,30.273,49.805
1709251376.852,23.926,33.203,-202.637,32.715,42.969
1709251376.856,33.691,30.762,-207.031,34.180,30.762
1709251376.859,37.598,27.344,-83.008,42.969,23.926
1709251376.863,17.090,28.320,-38.574,34.668,23.926
1709251376.867,22.461,31.250,-106.934,23.438,28.320
1709251376.871,53.223,28.320,-291.016,37.109,30.762
1709251376.875,52.246,25.879,-240.234,25.879,6.836
1709251376.907,32.715,30.273,-15.625,20.996,21.484
1709251376.911,20.508,29.785,-119.629,31.738,33.203
1709251376.915,28.320,28.320,-128.418,41.016,19.043
1709251376.919,28.320,31.250,61.523,37.598,56.641
1709251376.923,17.578,35.645,42.480,26.855,58.594
1709251376.927,4.395,34.668,-250.977,24.414,44.922
1709251376.931,15.137,30.273,-386.230,28.320,38.574
1709251376.934,52.734,32.715,-182.617,41.992,26.855
1709251376.938,50.293,35.156,-27.344,34.180,38.086
1709251376.942,21.973,41.992,-287.109,33.203,3.418
1709251376.946,15.137,43.945,-404.785,40.527,-2.441
1709251376.950,36.621,35.156,-16.113,45.898,64.941
1709251376.937,58.105,37.598,3.418,38.086,53.223
1709251376.941,30.762,40.527,-215.332,11.719,8.301
1709251376.945,5.859,32.715,-248.047,7.324,12.695
1709251376.949,17.578,32.715,-135.254,20.020,34.180
1709251376.953,26.367,38.086,-111.328,34.668,66.895
1709251376.957,25.391,39.551,-303.711,42.480,51.758
1709251376.961,15.137,39.551,-475.098,45.898,9.766
1709251376.964,24.414,35.156,-345.215,36.621,16.113
1709251376.968,40.039,34.668,-256.348,28.320,9.766
1709251376.972,28.809,37.109,-344.238,14.648,14.160
1709251376.976,10.254,34.668,-348.633,15.137,40.039
1709251376.980,23.438,32.715,-222.168,40.527,46.387
1709251376.982,42.969,37.109,-180.176,63.965,31.738
1709251376.986,33.691,35.156,-497.070,52.246,24.414
1709251376.990,27.344,29.297,-442.871,22.949,58.105
1709251376.994,17.090,33.203,-143.555,21.973,69.824
1709251376.998,31.250,34.180,-193.359,26.367,24.414
1709251377.002,46.387,34.180,-292.969,26.855,3.906
1709251377.006,17.090,33.203,-356.445,30.273,15.137
1709251377.009,6.836,33.203,-266.113,20.508,52.734
1709251377.013,40.527,30.762,-291.016,28.809,37.598
1709251377.017,50.293,29.785,-465.820,38.574,-23.926
1709251377.021,25.879,29.785,-250.977,12.207,-5.859
1709251377.025,11.719,22.949,-128.906,2.441,14.160
1709251377.028,10.254,24.902,-115.234,20.996,34.180
1709251377.032,31.738,33.203,-109.863,39.551,37.598
1709251377.036,37.109,32.715,-90.820,33.691,35.645
1709251377.040,13.184,35.645,-151.367,16.113,24.414
1709251377.044,15.137,36.133,-265.137,16.113,32.715
1709251377.048,34.180,32.715,-247.070,43.457,50.293
1709251377.052,37.598,30.762,-222.656,30.273,52.246
1709251377.055,17.090,31.250,-249.512,2.441,31.738
1709251377.059,9.277,32.715,-503.418,11.230,-2.441
1709251377.063,26.367,25.391,-370.605,16.113,24.414
1709251377.067,33.691,30.273,-58.105,27.344,56.641
1709251377.071,19.043,37.109,-280.273,25.879,11.230
1709251377.072,-2.441,31.738,-401.855,18.555,-0.488
1709251377.076,12.207,29.297,-233.398,31.738,33.691
1709251377.080,41.504,31.738,-137.207,55.176,61.523
1709251377.084,41.504,35.645,-281.738,62.988,54.688
1709251377.088,22.461,35.156,-491.211,44.434,27.832
1709251377.092,16.602,31.738,-448.730,24.414,32.227
1709251377.096,30.273,30.762,-364.258,36.621,20.508
1709251377.099,47.852,36.133,-503.906,41.016,-1.953
1709251377.103,36.621,37.109,-724.609,29.297,-13.184
1709251377.107,31.250,31.250,-389.648,31.738,41.016
1709251377.111,55.664,35.156,-99.121,25.391,49.316
1709251377.115,49.316,35.156,-170.410,17.090,44.434
1709251377.117,37.598,36.133,-251.465,23.438,32.227
1709251377.121,29.785,36.621,-238.770,25.391,33.203
1709251377.125,30.273,34.668,-133.789,42.480,71.777
1709251377.129,44.922,31.738,-196.289,45.410,50.781
1709251377.133,29.785,30.273,-270.508,44.922,44.434
1709251377.137,20.996,34.668,-399.902,40.039,41.504
1709251377.141,43.945,28.320,-437.500,38.574,42.969
1709251377.144,45.410,34.180,-649.414,53.223,-13.184
1709251377.148,22.949,42.969,-748.047,44.922,-42.480
1709251377.152,15.625,40.039,-448.242,33.203,12.695
1709251377.156,44.922,39.062,-395.508,28.320,45.898
1709251377.160,59.570,37.598,-423.340,34.180,31.250
1709251377.163,34.180,39.551,-385.254,36.621,28.809
1709251377.167,9.277,37.598,-458.496,45.410,22.461
1709251377.171,19.531,37.109,-589.355,61.523,3.906
1709251377.175,49.316,38.086,-525.391,38.086,22.461
1709251377.179,53.223,38.086,-458.984,13.184,21.973
1709251377.183,25.391,38.086,-571.289,20.996,36.621
1709251377.187,18.555,38.574,-768.555,30.762,29.297
1709251377.190,46.875,38.086,-856.934,23.438,-32.227
1709251377.194,52.246,34.180,-484.863,22.461,23.438
1709251377.198,22.949,38.086,-143.555,37.109,68.359
1709251377.202,10.742,42.969,-175.781,17.578,31.738
1709251377.206,24.414,37.109,-87.402,16.113,32.715
1709251377.207,38.086,36.133,141.113,35.645,62.988
1709251377.211,32.227,40.039,74.219,27.344,40.527
1709251377.215,14.648,32.227,-113.281,17.090,16.602
1709251377.219,11.230,31.250,-36.133,20.508,41.504
1709251377.223,30.762,37.109,122.070,21.484,55.664
1709251377.227,34.668,34.180,-11.230,22.949,33.691
1709251377.231,18.066,35.645,-337.402,20.996,19.043
1709251377.234,34.668,33.691,-246.094,13.184,31.250
1709251377.238,54.688,30.273,103.027,23.926,33.691
1709251377.242,41.016,34.668,65.918,50.781,20.508
1709251377.246,13.184,33.691,-22.461,52.734,33.203
1709251377.250,2.441,30.273,28.320,28.320,36.621
1709251377.253,29.297,31.250,67.383,37.109,38.574
1709251377.257,45.410,35.156,-96.680,49.316,7.812
1709251377.261,23.926,39.551,-181.641,37.598,-7.324
1709251377.265,16.113,34.180,-2.930,40.527,34.668
1709251377.269,28.809,26.367,136.719,41.992,39.551
1709251377.273,49.316,34.668,43.457,41.992,51.270
1709251377.277,47.852,44.922,-63.477,44.922,50.781
1709251377.280,30.273,44.922,61.035,29.297,25.879
1709251377.284,32.715,43.457,112.793,41.992,9.766
1709251377.288,41.504,42.480,67.871,63.477,22.949
1709251377.292,34.180,40.039,71.289,51.758,38.086
1709251377.296,23.438,40.039,105.469,29.785,19.043
1709251377.312,30.273,41.504,85.938,20.020,13.184
1709251377.316,57.129,42.480,69.824,41.504,1.465
1709251377.320,65.918,37.109,174.316,40.039,26.855
1709251377.324,45.410,39.551,106.934,28.320,23.438
1709251377.328,24.902,48.340,10.254,32.227,22.949
1709251377.332,46.875,49.805,-106.934,37.109,23.926
1709251377.336,72.754,45.410,-169.434,28.320,-1.465
1709251377.339,42.480,43.457,107.422,12.207,24.902
1709251377.343,17.090,47.363,89.355,24.414,37.109
1709251377.347,33.203,46.387,-28.809,46.875,14.648
1709251377.351,41.992,46.875,96.191,47.852,-5.859
1709251377.355,33.203,47.363,234.375,35.645,54.199
1709251377.358,20.020,48.828,74.707,32.227,68.848
1709251377.362,12.207,44.922,-66.406,38.086,37.598
1709251377.366,27.344,38.574,77.148,39.062,66.406
1709251377.370,55.664,40.527,74.219,47.363,63.965
1709251377.374,42.480,40.527,-209.473,44.922,2.441
1709251377.378,11.719,40.039,-366.699,38.086,14.648
1709251377.382,34.668,40.527,-281.738,49.805,47.852
1709251377.385,48.340,40.527,-201.172,47.363,56.641
1709251377.389,33.203,41.016,-409.180,48.340,20.508
1709251377.393,24.414,40.527,-691.406,55.176,-28.809
1709251377.397,24.414,32.227,-332.520,32.715,23.438
1709251377.401,40.039,31.250,-58.594,31.250,35.645
1709251377.402,54.688,41.016,-201.172,54.199,-2.441
1709251377.406,49.316,46.875,-254.883,56.641,-14.648
1709251377.410,44.434,47.852,-91.309,48.828,26.855
1709251377.414,53.711,42.969,14.160,38.574,53.711
1709251377.418,51.758,44.922,-123.047,34.668,12.695
1709251377.422,38.574,51.758,-264.648,34.180,0.000
1709251377.426,38.086,52.246,-250.977,53.223,10.254
1709251377.429,45.898,50.781,-43.457,55.176,40.039
1709251377.433,44.434,51.758,-198.242,15.137,26.367
1709251377.437,26.855,48.828,-334.473,20.996,4.395
1709251377.441,21.484,45.898,-91.797,38.574,16.602
1709251377.445,41.504,46.387,-51.270,36.133,13.184
1709251377.463,64.453,43.457,-103.027,21.973,19.043
1709251377.467,52.246,41.016,-50.781,13.184,14.648
1709251377.471,34.180,43.457,-62.500,13.184,16.602
1709251377.475,39.551,41.016,-80.566,28.320,33.203
1709251377.479,53.223,38.574,-39.551,32.227,28.809
1709251377.483,26.855,39.062,-149.414,20.508,12.695
1709251377.487,-9.766,37.109,-198.730,25.879,20.020
1709251377.490,4.395,35.645,-270.996,34.180,-8.301
1709251377.494,26.367,31.738,-317.383,41.504,-9.766
1709251377.498,21.973,26.855,-84.961,32.227,-0.488
1709251377.502,12.695,26.855,-69.824,12.207,-1.953
1709251377.506,0.977,24.902,-124.512,5.371,12.207
1709251377.493,11.230,30.273,-88.379,12.207,21.973
1709251377.497,26.367,31.738,-6.348,12.695,27.344
1709251377.501,15.625,26.855,-15.625,4.395,20.020
1709251377.505,0.488,28.320,-164.062,9.277,4.395
1709251377.509,5.371,24.902,-80.078,27.344,7.812
1709251377.513,21.484,26.855,-16.113,27.344,18.066
1709251377.517,6.348,31.738,-179.199,15.625,5.859
1709251377.520,-5.859,30.273,-184.082,12.695,26.855
1709251377.524,8.789,24.414,28.320,16.602,60.547
1709251377.528,18.555,21.973,165.527,-0.977,61.523
1709251377.532,20.508,26.367,37.109,13.672,24.902
1709251377.536,-0.488,28.809,-363.281,34.668,6.348
1709251377.537,-8.789,26.367,-281.250,21.973,40.039
1709251377.541,17.578,27.344,134.766,21.484,53.711
1709251377.545,33.691,30.273,94.727,33.691,49.805
1709251377.549,12.695,27.344,-44.434,21.973,62.988
1709251377.553,4.883,29.297,-20.996,-14.648,35.156
1709251377.557,36.133,32.227,-9.277,-6.348,-3.418
1709251377.561,32.227,33.691,-178.223,32.227,-36.133
1709251377.564,6.836,36.133,-389.648,32.715,-34.180
1709251377.568,-2.441,33.203,-186.035,21.484,-5.371
1709251377.572,16.113,29.785,127.441,28.809,13.184
1709251377.576,45.410,31.738,144.531,21.484,26.367
1709251377.580,42.480,36.621,89.844,26.855,25.391
1709251377.582,17.578,38.574,99.609,22.949,37.109
1709251377.586,22.949,38.086,145.508,15.137,51.758
1709251377.590,54.199,31.738,146.484,24.902,43.945
1709251377.594,56.152,27.344,86.914,30.273,4.395
1709251377.598,24.902,32.227,62.012,21.484,11.719
1709251377.602,20.020,33.691,29.297,28.320,46.387
1709251377.606,43.457,33.203,-263.184,41.504,-20.020
1709251377.609,47.852,31.738,-299.316,31.738,-44.434
1709251377.613,27.832,31.738,81.543,32.227,32.715
1709251377.617,22.461,35.645,52.246,40.527,21.973
1709251377.621,36.133,32.227,47.852,37.109,20.508
1709251377.625,42.969,32.227,151.855,29.297,20.508
1709251377.642,40.039,36.621,126.465,24.414,27.344
1709251377.646,36.621,37.109,-12.207,14.160,22.949
1709251377.650,47.363,37.109,-36.133,22.461,0.488
1709251377.654,58.594,34.180,113.281,32.715,22.949
1709251377.658,40.527,33.203,85.449,24.902,18.066
1709251377.662,24.414,37.598,-228.027,36.133,-12.695
1709251377.666,27.344,34.668,-249.512,54.688,26.855
1709251377.669,41.504,31.738,59.082,58.594,36.133
1709251377.673,32.715,33.691,128.418,46.875,30.762
1709251377.677,10.742,38.086,-158.203,13.672,37.598
1709251377.681,20.508,36.621,-317.871,10.742,-1.953
1709251377.685,50.781,32.715,36.621,28.320,15.137
1709251377.688,55.664,35.156,143.555,34.668,42.969
1709251377.692,26.855,35.156,1.465,28.320,40.527
1709251377.696,4.395,38.574,-41.016,-1.465,30.762
1709251377.700,19.043,35.156,132.324,4.883,58.594
1709251377.704,52.246,33.203,186.523,25.391,62.500
1709251377.708,29.297,35.645,1.953,27.344,41.504
1709251377.712,0.000,35.645,-117.188,29.297,37.109
1709251377.715,39.551,34.180,0.977,41.016,23.438
1709251377.719,64.941,27.344,153.320,46.875,40.527
1709251377.723,29.297,33.203,-104.980,19.531,38.574
1709251377.727,-1.953,39.551,-224.121,-5.859,-14.648
1709251377.731,8.789,34.180,55.176,12.207,7.812
1709251377.732,24.414,34.668,97.656,19.531,78.613
1709251377.736,24.414,37.109,-13.672,15.625,56.152
1709251377.740,17.090,37.109,-17.090,6.348,-4.883
1709251377.744,14.160,34.668,20.508,-0.488,5.371
1709251377.748,31.738,34.180,107.910,18.066,69.336
1709251377.752,46.387,34.668,36.621,22.461,55.664
1709251377.756,23.438,34.180,-89.844,20.508,30.762
1709251377.759,2.441,36.133,-6.348,24.414,57.617
1709251377.763,25.879,34.180,-75.195,32.227,15.137
1709251377.767,46.875,32.227,-140.137,24.902,26.855
1709251377.771,26.367,32.715,95.703,14.160,64.453
1709251377.775,7.324,32.715,123.047,17.578,58.105
1709251377.777,21.973,32.227,59.082,20.020,36.133
1709251377.781,32.227,32.227,124.512,22.949,23.438
1709251377.785,33.691,30.762,153.320,19.531,25.391
1709251377.789,21.484,33.691,-59.570,20.996,-10.742
1709251377.793,12.207,33.203,-139.160,25.879,-11.719
1709251377.797,29.297,29.785,48.340,36.133,28.320
1709251377.801,30.762,28.320,161.133,43.457,65.430
1709251377.804,19.043,29.785,91.309,49.805,35.645
1709251377.808,24.414,33.691,-154.297,25.879,-28.320
1709251377.812,42.480,33.691,45.898,14.648,0.488
1709251377.816,39.551,34.180,409.180,11.230,39.062
1709251377.820,12.207,38.086,219.727,-11.719,0.488
1709251377.823,-0.488,40.039,82.031,-5.371,-10.742
1709251377.827,15.137,38.086,255.371,8.301,11.719
1709251377.831,29.297,38.574,335.449,15.625,1.953
1709251377.835,21.484,40.039,243.164,0.977,24.414
1709251377.839,11.230,40.039,188.477,10.254,41.504
1709251377.843,24.414,40.039,162.109,11.230,34.180
1709251377.847,42.969,35.645,184.082,10.742,39.551
1709251377.850,41.992,35.156,56.641,33.691,16.602
1709251377.854,23.438,35.156,-188.477,25.391,34.180
1709251377.858,10.254,23.438,32.715,10.742,48.340
1709251377.862,37.598,23.926,257.812,19.043,23.926
1709251377.866,38.086,38.574,132.324,17.578,-1.953
1709251377.867,5.859,43.945,62.012,17.090,21.484
1709251377.871,0.977,44.434,113.770,30.762,54.688
1709251377.875,27.344,39.551,158.203,41.504,58.105
1709251377.879,43.457,39.551,40.039,26.855,9.277
1709251377.883,8.789,45.410,-49.316,6.348,-8.789
1709251377.887,-6.836,44.922,-129.883,17.578,18.066
1709251377.891,30.762,42.969,-98.633,29.297,32.227
1709251377.894,43.457,44.922,-158.203,19.043,27.344
1709251377.898,18.066,44.922,-275.391,13.672,-13.672
1709251377.902,-4.395,44.922,-95.703,13.672,5.859
1709251377.906,1.465,56.152,0.488,17.090,41.504
1709251377.910,26.367,19.043,10.742,24.414,50.293
1709251377.912,22.949,221.191,105.469,25.391,37.598
1709251377.916,0.488,603.027,137.207,18.066,33.203
1709251377.920,-0.977,729.492,73.242,12.695,38.574
1709251377.924,19.043,740.723,104.980,20.508,16.113
1709251377.928,26.855,734.863,223.633,35.645,27.832
1709251377.932,2.930,711.426,98.633,28.320,27.344
1709251377.936,5.371,680.176,-180.664,3.906,-3.418
1709251377.939,39.062,641.113,-229.004,16.113,-22.461
1709251377.943,56.641,602.539,142.090,25.391,35.645
1709251377.947,35.156,572.266,263.672,12.695,83.008
1709251377.951,-3.418,541.016,73.242,18.066,46.875
1709251377.955,-2.441,507.812,-68.359,21.973,-4.883
1709251377.959,19.531,485.352,26.367,24.902,3.418
1709251377.963,24.414,463.867,150.879,24.902,42.969
1709251377.967,8.789,434.082,-73.242,14.160,49.805
1709251377.971,8.789,406.250,-150.391,11.719,26.855
1709251377.975,34.668,381.836,26.367,21.484,22.461
1709251377.979,39.062,364.258,-41.504,34.668,37.598
1709251377.983,16.602,346.191,-359.375,17.578,32.715
1709251377.986,26.855,323.242,-333.008,17.090,17.090
1709251377.990,43.457,300.293,61.523,33.691,54.199
1709251377.994,32.227,286.621,37.598,19.531,56.152
1709251377.998,19.043,272.461,-127.441,13.672,34.180
1709251378.002,13.672,253.418,-108.398,26.367,30.762
1709251378.003,28.320,237.793,-14.160,32.715,34.668
1709251378.007,37.109,228.516,-42.969,25.879,26.855
1709251378.011,19.531,220.703,-234.375,29.297,10.254
1709251378.015,10.742,208.008,-275.879,19.531,16.602
1709251378.019,23.926,190.918,-107.910,16.602,33.203
1709251378.023,34.180,181.641,-215.820,35.645,14.160
1709251378.027,20.508,177.734,-536.621,15.137,1.465
1709251378.030,8.301,162.598,-327.148,2.930,62.012
1709251378.034,16.113,148.438,-99.609,19.531,37.109
1709251378.038,33.691,142.090,-102.051,15.137,16.113
1709251378.042,32.227,135.742,-122.559,15.137,4.883
1709251378.046,0.977,125.488,-156.738,2.441,0.000
1709251378.062,-7.324,115.723,-146.484,4.395,36.133
1709251378.066,12.695,108.887,-106.445,22.461,51.270
1709251378.070,17.090,102.539,-97.168,7.812,27.344
1709251378.074,7.324,97.168,-137.695,-18.066,16.602
1709251378.078,-7.324,91.797,-174.316,-15.625,34.668
1709251378.082,-1.465,88.379,-292.969,0.488,24.414
1709251378.086,9.766,86.426,-385.254,9.766,-14.648
1709251378.089,-4.883,83.984,-230.469,-7.324,14.648
1709251378.093,-14.160,84.473,-191.895,-22.461,18.066
1709251378.097,20.020,82.520,-446.289,4.883,16.113
1709251378.101,28.809,75.684,-333.984,12.695,37.598
1709251378.105,-0.488,78.125,-31.250,-4.395,50.293
1709251378.107,-16.113,77.637,-187.012,-5.859,29.785
1709251378.111,-12.207,74.219,-253.906,-4.395,10.254
1709251378.115,11.230,70.312,-49.316,13.184,40.039
1709251378.119,21.973,70.801,-26.367,21.484,29.297
1709251378.123,12.695,70.801,-212.402,8.301,1.465
1709251378.127,4.883,65.430,-314.453,7.324,11.230
1709251378.131,15.625,62.988,-226.074,35.645,28.809
1709251378.134,23.926,62.012,-74.707,42.480,36.133
1709251378.138,-4.395,61.035,-235.352,34.668,17.578
1709251378.142,-16.113,55.664,-534.668,23.926,9.277
1709251378.146,10.742,50.781,-196.289,25.391,53.223
1709251378.150,22.949,51.270,69.824,20.996,54.688
1709251378.152,15.625,55.664,-79.102,0.977,35.645
1709251378.156,10.254,55.664,-178.711,0.488,24.902
1709251378.160,11.719,52.734,-131.348,0.000,10.254
1709251378.164,18.555,50.781,-32.715,18.555,39.062
1709251378.168,18.066,50.293,-144.043,5.371,20.508
1709251378.172,12.207,52.734,-318.848,3.906,7.324
1709251378.176,13.672,52.246,-389.160,38.086,-7.812
1709251378.179,32.227,49.316,-243.652,28.809,8.789
1709251378.183,42.480,49.805,-342.773,8.301,18.555
1709251378.187,13.184,49.316,-362.305,21.484,21.973
1709251378.191,1.953,46.875,-62.500,21.484,68.848
1709251378.195,12.695,44.434,-96.191,7.324,60.059
1709251378.212,10.254,41.504,-152.344,15.137,46.875
1709251378.216,3.418,41.504,-143.555,14.160,15.137
1709251378.220,-1.465,42.969,-179.688,13.184,1.953
1709251378.224,15.625,43.457,-203.613,24.414,20.996
1709251378.228,36.133,45.410,-171.875,33.691,14.648
1709251378.232,25.879,44.922,-245.117,46.387,-8.301
1709251378.236,0.000,41.504,-252.441,33.691,23.438
1709251378.239,7.324,43.457,-290.527,22.949,10.254
1709251378.243,28.320,42.969,-351.562,39.551,-2.930
1709251378.247,22.461,36.621,-59.570,36.621,48.828
1709251378.251,12.695,39.551,2.441,20.508,67.383
1709251378.255,20.020,35.645,-91.797,20.996,68.359
1709251378.243,24.902,33.691,-32.227,23.926,59.082
1709251378.247,24.902,41.992,50.781,14.160,53.711
1709251378.251,13.184,42.969,-112.793,0.488,46.875
1709251378.255,9.277,44.922,-314.941,3.418,23.438
1709251378.259,30.762,44.922,-168.457,6.348,15.137
1709251378.263,41.992,45.898,-64.453,14.160,21.973
1709251378.267,23.926,45.410,-227.051,28.320,10.742
1709251378.270,-2.441,39.551,-287.109,-1.465,13.672
1709251378.274,1.953,37.109,-106.445,2.441,20.996
1709251378.278,31.250,38.574,28.809,33.691,0.000
1709251378.282,42.969,41.016,-40.527,28.320,14.648
1709251378.286,22.461,43.945,-352.539,12.207,23.438
1709251378.288,10.742,39.551,-299.805,19.043,-7.324
1709251378.292,33.691,35.645,-7.324,31.250,-10.742
1709251378.296,41.504,41.016,-68.359,30.762,1.465
1709251378.300,28.320,46.387,-164.551,44.434,3.418
1709251378.304,12.207,46.875,-129.395,41.016,-2.441
1709251378.308,14.648,46.875,-118.164,33.203,6.348
1709251378.312,34.180,48.340,-187.012,50.781,29.297
1709251378.315,21.973,50.293,-467.773,55.664,8.301
1709251378.319,9.766,42.480,-308.594,33.203,26.855
1709251378.323,22.949,38.086,58.594,33.691,60.059
1709251378.327,38.574,38.086,26.855,34.668,39.062
1709251378.331,30.273,39.551,-20.020,16.113,41.016
1709251378.347,0.977,34.668,-30.273,13.184,44.434
1709251378.351,13.672,33.691,-58.594,20.508,12.207
1709251378.355,41.992,41.992,-18.555,28.320,41.504
1709251378.359,27.344,40.527,-15.137,29.785,51.758
1709251378.363,-4.395,37.109,-78.613,34.668,21.973
1709251378.367,4.883,39.551,-172.363,40.527,29.297
1709251378.371,35.156,38.574,-300.293,49.805,27.344
1709251378.374,46.875,36.133,-179.688,23.438,34.180
1709251378.378,26.855,38.574,-79.102,0.977,20.996
1709251378.382,14.160,40.527,-124.023,4.883,20.996
1709251378.386,33.203,35.156,-181.641,17.578,35.156
1709251378.390,30.273,32.227,-99.609,25.879,22.461
1709251378.393,1.953,36.621,38.574,20.020,17.090
1709251378.397,-6.836,37.109,-63.965,20.020,16.602
1709251378.401,11.719,35.645,-3.906,31.738,36.133
1709251378.405,28.320,35.645,147.461,26.367,36.133
1709251378.409,36.621,41.016,96.680,7.324,26.855
1709251378.413,21.484,42.480,-85.938,0.488,45.410
1709251378.417,15.137,41.504,-60.547,15.625,59.570
1709251378.420,29.297,42.969,144.531,39.551,56.152
1709251378.424,29.785,43.457,203.125,41.504,52.246
1709251378.428,28.809,46.875,-78.613,33.203,29.297
1709251378.432,37.598,48.340,-265.137,40.039,5.859
1709251378.436,53.223,43.457,-7.812,41.016,14.160
1709251378.437,32.715,40.039,189.453,34.180,43.457
1709251378.441,2.441,44.922,-9.277,19.043,17.578
1709251378.445,-6.836,37.598,-109.375,1.465,-8.301
1709251378.449,18.066,31.738,203.125,11.230,41.504
1709251378.453,55.176,44.434,300.781,23.438,70.801
1709251378.457,31.738,46.387,113.770,28.320,48.340
1709251378.461,0.977,43.457,-66.406,27.344,19.043
1709251378.464,23.926,41.992,51.270,27.344,13.672
1709251378.468,49.805,41.504,244.629,17.578,51.270
1709251378.472,43.945,45.410,-22.949,9.766,41.504
1709251378.476,27.832,42.969,-109.863,10.742,4.395
1709251378.480,18.066,39.062,204.102,22.949,51.270
1709251378.482,27.344,38.574,206.543,30.762,58.105
1709251378.486,28.320,40.039,116.699,26.367,40.039
1709251378.490,7.812,37.109,21.484,20.996,21.973
1709251378.494,4.883,34.668,73.730,16.113,33.691
1709251378.498,24.902,38.574,97.168,20.996,46.387
1709251378.502,30.762,38.574,-69.824,25.879,18.555
1709251378.506,17.090,33.691,-56.152,18.555,33.691
1709251378.509,14.648,34.180,51.270,20.020,36.621
1709251378.513,14.160,41.016,-9.766,37.109,19.043
1709251378.517,12.207,40.527,-82.520,45.410,38.574
1709251378.521,9.766,37.598,93.750,29.785,32.715
1709251378.525,7.812,38.086,121.582,19.531,33.203
1709251378.527,27.344,29.785,101.074,25.879,42.480
1709251378.531,49.316,26.367,188.965,27.344,48.340
1709251378.535,35.156,24.902,191.895,29.297,34.180
1709251378.539,11.230,26.855,81.055,20.508,20.996
1709251378.543,10.742,36.621,43.945,10.254,29.297
1709251378.547,25.391,36.621,90.820,22.949,34.668
1709251378.551,21.484,36.621,116.211,34.668,40.039
1709251378.554,6.348,32.715,78.125,21.484,29.297
1709251378.558,10.742,33.203,-148.438,38.574,12.207
1709251378.562,34.668,37.109,-70.312,52.734,30.762
1709251378.566,43.457,35.645,335.938,11.230,79.590
1709251378.570,30.762,39.551,238.770,-13.672,71.777
1709251378.572,13.672,41.016,111.328,-14.648,65.430
1709251378.576,26.367,36.621,248.535,-2.930,63.965
1709251378.580,42.480,36.133,308.594,21.973,49.805
1709251378.584,28.809,41.016,189.453,33.203,44.434
1709251378.588,17.578,41.016,105.469,22.949,34.668
1709251378.592,28.809,40.039,88.867,26.855,15.137
1709251378.596,33.203,39.551,195.801,34.668,17.090
1709251378.599,40.039,44.922,166.504,30.762,18.066
1709251378.603,36.621,43.945,-88.379,16.602,-8.789
1709251378.607,20.996,37.109,163.574,7.324,0.977
1709251378.611,33.691,36.133,489.258,31.250,37.598
1709251378.615,37.109,35.156,399.414,45.898,12.207
1709251378.617,21.484,36.621,354.004,30.762,27.832
1709251378.621,24.414,30.273,438.477,31.738,41.504
1709251378.625,40.039,26.367,457.520,41.504,12.207
1709251378.629,54.688,32.715,431.641,31.250,22.461
1709251378.633,41.504,34.668,362.793,23.438,6.348
1709251378.637,7.324,37.109,258.301,35.156,-8.301
1709251378.641,16.113,36.133,281.738,42.480,0.000
1709251378.644,34.180,38.574,217.773,35.645,1.953
1709251378.648,14.648,36.133,209.473,38.574,-12.695
1709251378.652,0.977,29.297,426.758,29.297,2.441
1709251378.656,22.949,30.762,500.488,25.879,61.035
1709251378.660,42.480,30.273,514.648,36.621,67.871
1709251378.677,43.945,33.691,558.594,16.602,47.363
1709251378.681,25.391,39.062,534.668,0.488,27.832
1709251378.685,16.602,36.621,385.254,22.949,5.371
1709251378.689,33.691,35.645,402.344,36.133,21.484
1709251378.693,31.250,34.668,553.223,23.926,19.531
1709251378.697,20.508,38.574,403.809,10.254,-17.578
1709251378.701,27.832,42.480,188.477,16.602,-11.719
1709251378.704,42.969,39.062,198.730,24.414,6.348
1709251378.708,39.062,35.156,502.930,20.020,28.809
1709251378.712,25.879,36.133,596.680,14.160,46.875
1709251378.716,9.277,32.715,463.867,22.461,33.203
1709251378.720,19.043,32.715,534.668,37.109,45.898
1709251378.708,43.457,36.133,691.895,35.645,56.152
1709251378.712,48.828,36.133,556.152,32.715,17.090
1709251378.716,31.738,40.039,313.477,42.969,-1.465
1709251378.720,24.902,38.574,423.340,33.203,20.996
1709251378.724,36.133,32.715,663.086,25.879,40.527
1709251378.728,24.902,33.691,534.668,38.574,29.785
1709251378.732,13.672,34.668,376.953,34.668,22.949
1709251378.735,17.578,33.691,495.605,41.016,32.227
1709251378.739,26.367,33.203,641.602,43.457,33.691
1709251378.743,29.785,32.227,633.789,25.391,35.156
1709251378.747,18.066,30.762,333.496,4.395,56.152
1709251378.751,10.742,28.320,348.145,-2.930,65.918
1709251378.767,29.785,26.855,640.625,19.043,55.664
1709251378.771,46.387,28.809,612.305,41.016,44.922
1709251378.775,27.832,32.715,500.977,18.555,28.320
1709251378.779,9.277,32.227,497.070,-1.465,18.555
1709251378.783,22.949,30.762,523.438,23.926,16.602
1709251378.787,33.691,33.691,443.848,38.574,24.414
1709251378.791,28.809,38.086,193.359,29.785,15.625
1709251378.794,21.973,30.762,337.891,8.301,27.832
1709251378.798,33.691,24.902,611.328,16.113,40.039
1709251378.802,40.527,35.156,614.746,33.691,27.832
1709251378.806,24.902,40.527,591.797,26.367,13.184
1709251378.810,11.230,41.992,551.270,13.672,14.648
1709251378.812,14.648,41.992,580.078,12.695,26.367
1709251378.816,32.715,30.762,627.441,24.414,29.297
1709251378.820,35.156,23.926,700.195,29.297,60.547
1709251378.824,17.578,27.832,682.129,26.855,60.547
1709251378.828,8.301,26.367,653.809,10.742,83.008
1709251378.832,19.531,25.391,556.152,16.113,56.641
1709251378.836,21.973,23.438,555.176,37.598,45.410
1709251378.839,5.371,23.926,587.402,26.367,60.547
1709251378.843,-12.207,21.973,485.840,26.855,29.785
1709251378.847,14.648,17.578,284.180,47.363,12.695
1709251378.851,32.227,16.113,293.945,33.203,-7.324
1709251378.855,6.348,18.555,633.789,15.625,23.438
1709251378.857,-10.742,22.461,532.227,15.137,17.090
1709251378.861,0.000,22.949,463.379,31.250,14.648
1709251378.865,22.949,24.902,660.645,42.480,48.340
1709251378.869,33.691,22.461,609.863,12.695,4.883
1709251378.873,26.367,21.484,399.902,0.000,-15.625
1709251378.877,16.602,22.461,270.020,11.230,0.488
1709251378.881,28.320,15.625,341.797,22.461,19.531
1709251378.884,37.598,16.113,503.906,25.391,42.480
1709251378.888,15.625,22.461,330.078,28.320,20.020
1709251378.892,12.207,18.066,92.285,37.598,-18.066
1709251378.896,27.344,13.184,332.031,32.227,8.789
1709251378.900,34.668,14.648,486.816,23.926,27.344
1709251378.902,31.738,17.578,399.902,26.855,22.949
1709251378.906,17.090,16.602,387.695,20.508,31.250
1709251378.910,27.344,16.602,561.523,23.438,42.480
1709251378.914,59.082,15.137,659.180,43.945,69.336
1709251378.918,57.617,17.578,617.676,39.062,87.402
1709251378.922,30.762,28.320,451.660,33.203,56.641
1709251378.926,28.809,30.273,374.512,33.203,35.156
1709251378.929,55.176,23.926,498.047,36.621,46.387
1709251378.933,55.664,16.602,322.266,39.551,43.457
1709251378.937,29.297,24.414,199.707,28.320,13.672
1709251378.941,20.020,25.391,448.730,33.691,12.695
1709251378.945,31.250,22.461,464.844,46.875,12.207
1709251378.948,36.621,21.484,476.074,29.785,20.508
1709251378.952,23.926,22.461,420.898,31.250,26.367
1709251378.956,19.043,22.461,309.082,34.668,11.719
1709251378.960,41.992,19.043,356.445,38.086,43.945
1709251378.964,46.875,19.531,387.207,57.129,55.664
1709251378.968,22.949,19.043,367.188,46.387,29.785
1709251378.972,1.465,16.602,251.953,27.344,4.395
1709251378.975,11.230,16.602,212.891,41.992,31.250
1709251378.979,48.828,14.648,221.191,62.988,29.785
1709251378.983,47.852,9.277,419.922,39.551,11.719
1709251378.987,20.020,9.277,457.520,23.438,16.602
1709251378.991,17.090,13.672,365.234,32.715,24.902
1709251378.993,37.109,14.160,431.152,41.992,24.414
1709251378.997,43.945,14.648,535.645,21.484,41.504
1709251379.001,23.438,20.996,415.039,10.254,25.879
1709251379.005,8.301,20.508,266.113,20.996,3.418
1709251379.009,17.578,15.137,278.809,44.922,15.625
1709251379.013,35.156,13.184,273.438,32.227,21.973
1709251379.017,26.855,20.996,199.219,11.719,9.277
1709251379.020,1.465,26.855,-75.684,21.973,2.441
1709251379.024,7.324,20.996,-33.691,22.461,36.621
1709251379.028,32.715,16.602,346.680,30.762,41.992
1709251379.032,31.250,26.855,304.688,29.785,29.297
1709251379.036,21.973,32.227,187.500,12.207,43.945
1709251379.037,38.574,28.809,281.250,18.066,50.293
1709251379.041,49.316,30.273,349.121,36.133,28.320
1709251379.045,36.621,37.109,232.422,17.090,0.488
1709251379.049,11.719,38.086,114.258,-13.672,-12.207
1709251379.053,0.000,31.738,220.703,-3.418,25.879
1709251379.057,29.785,31.250,236.328,31.250,23.438
1709251379.061,42.480,34.668,104.492,36.621,2.441
1709251379.064,28.809,39.062,-149.414,24.414,-8.789
1709251379.068,17.578,34.668,38.086,43.457,21.484
1709251379.072,25.391,29.785,384.766,25.391,55.176
1709251379.076,43.457,31.738,358.887,-9.277,47.363
1709251379.080,44.922,31.738,261.230,0.000,21.973
1709251379.083,33.203,31.738,252.441,1.953,21.484
1709251379.087,41.016,33.691,330.078,9.277,48.828
1709251379.091,47.363,31.738,322.754,16.602,30.273
1709251379.095,26.367,27.344,309.082,21.973,16.602
1709251379.099,12.207,24.902,286.621,20.508,17.578
1709251379.103,34.668,18.066,225.098,13.184,24.902
1709251379.107,48.828,22.949,92.773,36.621,20.508
1709251379.110,27.832,26.367,154.785,44.922,6.836
1709251379.114,4.395,21.973,368.652,29.297,4.883
1709251379.118,2.930,24.414,341.309,33.691,12.695
1709251379.122,26.367,21.484,351.562,43.457,41.504
1709251379.126,41.016,18.066,515.137,37.598,66.895
1709251379.128,30.273,19.531,534.668,35.645,42.480
1709251379.132,20.996,21.973,344.727,45.898,10.254
1709251379.136,33.203,12.207,407.227,69.824,58.105
1709251379.140,40.527,7.812,640.137,60.059,89.844
1709251379.144,18.066,21.973,597.656,30.273,44.434
1709251379.148,1.465,30.273,309.570,27.832,4.395
1709251379.152,23.926,29.297,16.113,44.922,-28.809
1709251379.155,39.062,20.996,316.895,42.969,-1.953
1709251379.159,36.133,21.973,610.840,42.480,31.250
1709251379.163,33.203,25.391,451.172,50.781,6.836
1709251379.167,26.855,26.367,419.434,27.344,-0.977
1709251379.171,34.180,24.902,556.152,1.465,9.277
1709251379.188,56.641,22.461,567.383,0.488,17.090
1709251379.192,48.340,25.391,408.691,14.648,18.066
1709251379.196,35.156,22.461,355.957,30.762,8.301
1709251379.200,35.156,15.137,530.273,47.852,49.805
1709251379.204,41.504,19.531,623.535,50.293,63.965
1709251379.208,32.715,30.273,221.680,40.039,20.508
1709251379.212,26.367,33.203,26.855,22.949,20.996
1709251379.215,48.340,29.297,431.641,19.531,44.922
1709251379.219,54.199,27.344,483.887,33.203,25.879
1709251379.223,33.691,28.320,318.359,29.785,0.977
1709251379.227,19.531,24.902,288.574,19.043,-5.859
1709251379.231,24.414,21.484,348.633,27.832,29.297
1709251379.232,37.598,25.391,416.016,37.109,61.035
1709251379.236,42.480,28.320,363.281,36.621,35.645
1709251379.240,31.738,27.832,304.199,40.039,14.160
1709251379.244,12.207,26.367,349.121,47.363,44.922
1709251379.248,26.855,27.344,280.762,51.270,42.969
1709251379.252,41.016,32.715,157.715,38.086,7.812
1709251379.256,26.855,31.250,172.363,25.391,8.301
1709251379.259,23.438,23.926,299.805,36.621,23.438
1709251379.263,41.504,21.484,293.457,45.898,25.879
1709251379.267,56.641,23.438,88.379,50.293,24.902
1709251379.271,39.551,23.438,282.227,36.133,43.457
1709251379.275,27.832,21.973,435.547,22.461,36.133
1709251379.277,24.414,17.090,435.059,35.645,42.969
1709251379.281,27.832,14.160,514.160,45.410,49.316
1709251379.285,32.227,16.602,503.418,25.391,29.297
1709251379.289,14.648,16.602,379.883,13.184,6.836
1709251379.293,23.438,16.113,347.656,25.879,22.949
1709251379.297,55.176,16.602,392.090,48.340,41.504
1709251379.301,50.293,19.043,414.551,47.852,66.406
1709251379.304,24.902,17.578,318.848,26.367,31.250
1709251379.308,21.973,20.020,66.406,31.738,-3.906
1709251379.312,34.668,19.531,159.180,35.645,15.625
1709251379.316,54.688,12.207,586.426,41.992,48.828
1709251379.320,42.969,11.230,574.219,51.270,68.848
1709251379.322,12.207,15.625,434.082,38.574,45.898
1709251379.326,16.602,19.043,539.551,44.922,20.020
1709251379.330,41.016,21.484,651.855,40.527,40.039
1709251379.334,42.969,25.391,525.391,29.785,37.598
1709251379.338,24.902,24.902,379.883,17.578,11.230
1709251379.342,31.738,24.414,399.414,10.742,30.273
1709251379.346,58.594,23.438,497.070,24.414,66.895
1709251379.349,50.293,26.367,391.113,30.762,48.828
1709251379.353,21.484,29.297,125.000,30.273,-5.371
1709251379.357,17.578,22.949,345.215,22.461,16.113
1709251379.361,40.039,22.461,535.645,22.461,40.527
1709251379.365,53.223,20.020,382.812,21.484,3.906
1709251379.367,50.781,15.625,363.770,19.043,10.742
1709251379.371,22.949,26.367,490.234,12.695,20.508
1709251379.375,12.207,33.203,604.492,23.438,56.641
1709251379.379,20.508,30.762,625.488,40.039,77.637
1709251379.383,1.953,29.785,499.023,39.062,22.949
1709251379.387,-12.695,29.297,337.891,38.086,2.930
1709251379.391,19.531,26.367,411.621,33.203,36.133
1709251379.394,46.875,22.461,333.496,36.133,37.109
1709251379.398,13.672,21.484,246.094,33.691,5.859
1709251379.402,-11.719,22.461,472.168,21.484,20.508
1709251379.406,3.906,22.461,465.820,38.574,28.320
1709251379.410,30.762,17.090,507.812,50.293,41.016
1709251379.413,23.438,12.695,603.516,45.898,72.266
1709251379.417,-0.977,22.949,494.629,23.926,51.758
1709251379.421,24.414,28.809,367.188,9.277,27.832
1709251379.425,45.898,28.809,397.949,14.160,23.926
1709251379.429,43.945,28.320,562.988,18.555,28.320
1709251379.433,34.668,30.762,477.051,26.367,33.203
1709251379.437,18.555,32.227,222.656,40.039,2.930
1709251379.440,23.926,30.273,210.449,50.781,-4.883
1709251379.444,23.438,24.414,525.391,23.438,35.156
1709251379.448,7.324,28.320,582.031,-17.090,35.156
1709251379.452,9.277,31.250,402.832,-22.461,10.742
1709251379.456,39.062,30.762,411.621,4.395,-2.930
1709251379.459,55.176,31.738,599.609,20.020,37.109
1709251379.463,36.621,35.156,583.496,10.254,46.875
1709251379.467,-0.488,34.180,418.457,14.160,11.230
1709251379.471,10.742,32.227,429.688,34.180,26.855
1709251379.475,48.340,36.133,502.930,45.898,29.785
1709251379.479,44.434,37.598,507.324,40.527,28.809
1709251379.483,25.391,40.527,187.012,31.250,0.000
1709251379.486,26.855,38.574,111.328,19.043,-1.953
1709251379.490,39.551,35.156,569.824,15.137,41.504
1709251379.494,45.410,37.598,633.301,22.461,31.250
1709251379.498,33.203,41.016,482.910,18.555,23.926
1709251379.502,9.766,41.992,494.629,23.926,20.020
1709251379.502,22.461,41.016,573.730,54.199,13.672
1709251379.506,43.457,43.945,554.688,62.500,26.855
1709251379.510,27.832,44.922,472.656,26.855,36.621
1709251379.514,2.441,43.945,492.676,5.859,43.945
1709251379.518,2.441,44.922,549.805,20.508,39.551
1709251379.522,22.949,47.852,378.418,37.598,-1.953
1709251379.526,20.020,47.363,145.020,28.809,-25.391
1709251379.529,0.000,43.945,250.977,23.438,-6.348
1709251379.533,10.742,43.457,500.488,33.203,30.762
1709251379.537,40.527,45.410,391.113,58.594,1.465
1709251379.541,37.598,47.363,240.234,63.965,-12.207
1709251379.545,5.371,43.945,455.566,14.160,37.598
1709251379.562,20.020,42.969,453.613,-22.461,10.742
1709251379.566,44.434,41.504,445.801,-5.859,22.461
1709251379.570,27.344,40.527,508.301,12.695,34.668
1709251379.574,14.648,34.180,513.184,5.371,30.762
1709251379.578,2.441,26.855,507.812,12.207,64.941
1709251379.582,10.742,30.762,437.500,48.828,57.129
1709251379.586,34.180,34.668,434.570,55.664,33.691
1709251379.589,29.785,29.297,473.145,15.625,6.348
1709251379.593,18.066,35.645,388.184,2.930,0.488
1709251379.597,26.855,42.480,193.848,7.812,15.625
1709251379.601,42.480,37.109,249.023,-0.977,9.766
1709251379.605,35.645,36.621,497.070,9.277,28.320
1709251379.607,12.695,40.039,374.023,4.883,32.715
1709251379.611,8.301,41.992,281.250,14.648,58.594
1709251379.615,25.391,38.574,460.938,31.738,54.688
1709251379.619,32.715,36.133,490.234,33.691,9.766
1709251379.623,19.531,45.410,319.824,21.973,5.371
1709251379.627,11.230,46.387,153.809,9.766,-5.859
1709251379.631,34.668,37.598,250.000,23.438,26.855
1709251379.634,51.758,38.574,419.922,37.109,54.688
1709251379.638,37.598,44.434,211.914,39.551,4.883
1709251379.642,15.625,41.992,-3.906,31.738,-1.465
1709251379.646,23.926,36.621,309.082,48.340,37.109
1709251379.650,38.086,39.551,458.496,57.617,36.621
1709251379.652,36.621,44.434,314.941,24.414,25.391
1709251379.656,32.715,43.945,255.371,4.883,22.461
1709251379.660,55.664,41.992,369.141,16.113,21.973
1709251379.664,63.965,40.039,495.605,32.715,53.223
1709251379.668,29.785,40.527,362.305,33.203,55.176
1709251379.672,3.418,38.574,169.434,30.273,37.109
1709251379.676,15.137,41.016,165.527,39.062,18.066
1709251379.679,41.992,41.504,333.008,54.688,38.086
1709251379.683,51.758,34.180,184.082,64.453,23.438
1709251379.687,30.762,39.551,73.242,63.965,-12.695
1709251379.691,12.695,44.434,304.688,29.785,0.000
1709251379.695,34.180,37.109,342.773,12.207,13.184
1709251379.697,56.152,35.645,372.559,37.598,34.668
1709251379.701,41.016,42.969,369.629,47.363,27.832
1709251379.705,14.648,38.574,363.281,52.734,41.504
1709251379.709,32.715,37.109,263.672,34.668,27.344
1709251379.713,56.152,45.898,253.418,16.602,21.484
1709251379.717,40.039,46.387,276.855,19.531,32.715
1709251379.721,16.602,43.945,194.824,-2.930,46.387
1709251379.724,15.137,42.969,98.145,4.395,41.504
1709251379.728,37.598,42.969,-1.465,28.809,17.090
1709251379.732,30.762,41.504,287.598,33.203,63.965
1709251379.736,13.184,38.574,369.141,27.344,55.176
1709251379.740,13.672,38.574,172.363,18.066,-4.883
1709251379.742,31.250,37.109,245.117,15.137,14.160
1709251379.746,52.246,36.621,369.629,12.207,45.898
1709251379.750,30.762,39.551,245.605,14.648,20.996
1709251379.754,3.418,41.992,81.543,16.602,3.418
1709251379.758,27.344,36.621,185.059,32.715,35.645
1709251379.762,47.363,34.668,218.750,46.875,64.941
1709251379.766,19.043,44.434,62.988,51.758,37.109
1709251379.769,-7.324,50.293,-230.469,41.016,6.348
1709251379.773,15.137,47.363,-207.031,24.414,35.645
1709251379.777,50.781,41.016,193.848,25.879,35.645
1709251379.781,47.363,39.062,149.902,3.906,9.766
1709251379.785,29.785,43.945,-14.160,-13.184,9.277
1709251379.787,26.855,42.969,21.973,14.160,-13.184
1709251379.791,23.926,38.086,184.082,31.738,19.043
1709251379.795,24.902,40.527,118.164,17.090,27.832
1709251379.799,20.508,44.434,-53.711,18.066,-0.488
1709251379.803,7.324,41.992,-20.020,18.555,4.883
1709251379.807,21.973,40.527,18.066,12.695,14.648
1709251379.811,43.945,42.480,-79.590,26.855,29.297
1709251379.814,31.738,45.898,-327.637,32.227,-20.020
1709251379.818,30.273,41.992,-206.055,30.273,-44.434
1709251379.822,32.227,37.109,30.273,47.852,15.137
1709251379.826,19.531,40.527,-31.250,47.363,25.879
1709251379.830,21.484,41.016,-70.312,22.461,10.254
1709251379.847,19.043,40.039,44.922,16.602,32.227
1709251379.851,25.879,35.645,79.590,30.273,25.879
1709251379.855,41.504,30.273,57.129,47.852,7.812
1709251379.859,30.762,37.598,95.215,37.598,34.180
1709251379.863,4.883,41.992,23.926,38.086,7.812
1709251379.867,8.301,40.039,-116.211,67.383,-16.602
1709251379.871,37.598,38.574,-299.316,82.031,-21.973
1709251379.874,39.551,37.598,-242.188,64.941,-20.020
1709251379.878,16.113,36.621,41.504,19.043,31.738
1709251379.882,6.836,32.715,-23.926,-17.090,36.133
1709251379.886,14.648,28.809,4.395,-6.836,55.664
1709251379.890,31.738,26.855,89.844,6.836,41.992
1709251379.878,19.043,34.668,-42.480,16.602,18.555
1709251379.882,12.695,43.457,-174.805,21.973,38.574
1709251379.886,33.691,42.480,-191.406,16.113,20.508
1709251379.890,53.223,37.598,23.438,13.184,32.227
1709251379.894,53.223,35.645,53.711,10.742,36.133
1709251379.898,28.809,37.598,-198.730,16.113,42.480
1709251379.902,38.574,39.062,-226.562,23.926,49.805
1709251379.905,59.570,38.086,3.906,34.180,45.410
1709251379.909,46.387,39.062,76.660,42.480,45.410
1709251379.913,29.297,42.480,-219.238,28.320,36.133
1709251379.917,29.297,41.016,-431.641,11.719,40.527
1709251379.921,54.199,36.621,-125.977,30.762,30.273
1709251379.937,55.176,39.062,2.441,38.574,27.344
1709251379.941,27.832,39.062,-191.895,25.879,5.859
1709251379.945,0.488,35.156,-247.559,19.531,6.836
1709251379.949,25.391,32.227,-142.578,56.152,44.434
1709251379.953,46.875,32.715,-29.297,58.594,47.852
1709251379.957,22.461,41.504,-326.660,18.066,18.066
1709251379.961,5.859,40.039,-520.020,33.203,0.977
1709251379.964,20.508,36.621,-97.168,43.457,36.621
1709251379.968,47.852,42.480,48.340,34.180,56.641
1709251379.972,22.949,43.457,-119.629,36.133,27.832
1709251379.976,4.395,47.852,-160.156,18.555,-8.789
1709251379.980,20.508,40.039,-22.949,3.418,-1.465
1709251379.982,51.758,35.156,51.270,9.766,29.785
1709251379.986,62.500,43.457,21.973,9.277,30.273
1709251379.990,35.645,40.527,35.645,15.137,28.809
1709251379.994,20.996,38.086,78.613,26.855,36.133
1709251379.998,27.832,35.645,95.215,47.852,42.480
1709251380.002,30.762,34.180,31.250,47.363,44.922
1709251380.006,20.508,34.668,8.301,20.020,71.777
1709251380.009,26.855,33.691,-85.938,14.648,19.043
1709251380.013,41.992,30.762,-152.344,41.504,-23.926
1709251380.017,38.086,32.715,-225.586,41.504,12.207
1709251380.021,23.926,31.250,-64.453,28.320,22.949
1709251380.025,21.484,29.297,118.652,22.949,37.109
1709251380.027,33.203,28.320,130.371,41.016,51.270
1709251380.031,39.062,27.832,209.473,51.270,46.875
1709251380.035,28.809,27.832,225.098,43.945,36.133
1709251380.039,21.973,27.832,115.234,37.598,28.320
1709251380.043,44.434,28.320,29.297,28.320,18.066
1709251380.047,58.105,27.832,74.707,45.898,28.809
1709251380.051,46.387,26.855,80.078,49.316,32.227
1709251380.054,23.438,25.391,23.926,42.969,6.348
1709251380.058,20.996,27.344,-162.598,38.574,17.578
1709251380.062,39.062,27.344,-123.535,27.832,27.832
1709251380.066,48.340,24.414,208.008,31.738,25.391
1709251380.070,39.551,20.020,117.676,26.855,38.086
1709251380.073,34.668,19.531,-73.242,4.883,33.691
1709251380.077,45.898,19.043,160.156,5.371,62.988
1709251380.081,49.316,18.066,335.449,30.762,71.289
1709251380.085,31.738,22.949,148.438,36.621,28.320
1709251380.089,15.137,22.949,18.066,9.766,17.090
1709251380.093,26.855,17.578,37.109,17.578,27.344
1709251380.097,46.387,18.555,109.375,46.387,48.828
1709251380.100,39.551,22.461,-13.672,51.758,40.527
1709251380.104,15.137,25.391,-234.863,16.602,10.742
1709251380.108,23.438,25.391,-20.996,1.465,20.508
1709251380.112,52.246,25.391,219.727,27.344,44.434
1709251380.116,53.711,27.344,135.742,32.227,28.320
1709251380.118,22.461,30.273,-9.277,19.531,26.367
1709251380.122,6.836,28.809,-4.883,17.090,6.348
1709251380.126,29.785,31.738,131.836,33.691,17.090
1709251380.130,41.016,32.227,83.008,45.410,41.992
1709251380.134,21.973,24.902,-29.785,40.527,15.625
1709251380.138,0.488,24.414,-98.633,20.996,7.324
1709251380.142,0.488,25.391,-47.363,41.504,44.922
1709251380.145,14.160,22.461,-141.113,50.781,43.457
1709251380.149,21.484,24.414,-185.547,18.555,50.781
1709251380.153,4.395,22.461,52.734,8.301,56.641
1709251380.157,3.418,24.902,18.555,31.250,27.344
1709251380.161,25.391,30.273,28.809,41.504,33.203
1709251380.162,31.738,31.250,90.820,11.719,39.551
1709251380.166,13.672,27.832,42.969,-0.977,43.945
1709251380.170,3.418,27.344,-73.242,8.301,51.270
1709251380.174,17.090,35.156,-92.285,22.949,40.527
1709251380.178,32.227,35.645,22.949,24.902,40.039
1709251380.182,4.883,34.668,-75.684,12.207,51.270
1709251380.186,-9.766,37.598,-292.480,4.395,39.551
1709251380.189,41.992,37.598,-476.074,21.973,3.418
1709251380.193,72.266,32.715,-188.965,38.574,31.738
1709251380.197,37.109,34.668,48.340,30.273,40.527
1709251380.201,5.371,37.109,-146.484,14.160,-0.977
1709251380.205,32.715,36.133,-50.781,29.785,40.527
1709251380.207,52.246,40.039,72.266,40.039,35.645
1709251380.211,40.039,43.945,4.883,30.273,18.066
1709251380.215,26.855,45.410,-96.680,23.438,43.457
1709251380.219,24.902,46.875,-83.008,31.738,41.504
1709251380.223,47.852,45.898,-16.113,43.457,4.395
1709251380.227,55.664,42.969,-132.812,50.293,-17.090
1709251380.231,32.227,44.434,-460.449,46.875,-17.090
1709251380.234,24.414,46.387,-517.578,43.457,-7.812
1709251380.238,30.273,39.062,-34.180,51.270,43.457
1709251380.242,41.016,42.969,98.633,46.387,64.453
1709251380.246,38.574,51.270,-70.801,33.691,48.340
1709251380.250,30.273,44.922,-59.082,31.738,47.852
1709251380.267,29.785,41.016,36.133,43.457,44.434
1709251380.271,42.969,45.898,41.016,36.621,55.664
1709251380.275,32.715,48.828,-62.012,40.039,51.270
1709251380.279,15.137,46.875,-110.352,15.137,25.879
1709251380.283,44.434,40.527,-79.590,-2.441,0.000
1709251380.287,57.617,45.898,-163.086,34.180,17.578
1709251380.291,27.832,53.711,-398.926,38.086,11.230
1709251380.294,4.883,43.945,-265.137,21.973,-5.371
1709251380.298,34.668,46.875,-103.027,29.785,20.508
1709251380.302,44.922,48.340,-185.547,50.293,44.434
1709251380.306,12.695,41.016,-113.281,47.852,61.523
1709251380.310,9.277,43.945,-32.227,44.922,49.805
1709251380.312,41.504,46.875,-85.449,71.289,41.016
1709251380.316,71.289,47.852,-78.125,48.828,41.992
1709251380.320,55.176,50.293,-3.418,7.812,58.594
1709251380.324,34.180,54.688,-62.500,4.395,30.762
1709251380.328,13.184,57.129,-148.438,-1.953,19.043
1709251380.332,22.949,44.922,-181.641,13.184,43.457
1709251380.336,58.105,45.410,-159.180,40.527,33.691
1709251380.339,41.992,53.711,-89.355,39.062,15.625
1709251380.343,-1.953,50.293,-137.207,41.992,6.836
1709251380.347,-2.441,48.340,-369.629,43.457,8.789
1709251380.351,37.598,41.992,-327.148,40.527,-23.438
1709251380.355,40.039,40.039,-103.516,40.039,-6.348
1709251380.357,13.672,47.363,-276.855,23.438,8.789
1709251380.361,21.973,47.363,-373.535,21.484,-33.203
1709251380.365,43.457,40.039,-99.121,47.363,-6.348
1709251380.369,61.523,40.527,95.703,47.363,45.898
1709251380.373,60.059,48.340,-74.219,26.367,39.551
1709251380.377,34.180,48.828,-248.047,37.598,29.785
1709251380.381,30.273,42.969,-217.285,53.223,9.766
1709251380.384,33.203,46.387,-89.355,49.316,5.859
1709251380.388,25.391,49.805,-161.133,32.227,36.133
1709251380.392,25.391,43.457,-270.996,34.668,41.504
1709251380.396,42.969,42.480,-33.691,62.988,51.758
1709251380.400,63.965,49.316,106.934,80.566,47.363
1709251380.402,51.758,52.734,-209.473,64.453,6.348
1709251380.406,34.180,49.805,-392.090,33.203,10.254
1709251380.410,54.688,38.086,-148.926,39.062,43.945
1709251380.414,74.219,36.133,-71.289,63.965,37.598
1709251380.418,70.312,40.527,-143.555,56.152,19.531
1709251380.422,51.758,40.039,-291.992,27.832,5.371
1709251380.426,44.434,41.016,-273.926,32.715,13.672
1709251380.429,58.594,40.527,-101.562,55.664,32.715
1709251380.433,51.758,42.480,-232.910,30.273,26.855
1709251380.437,35.645,41.992,-338.379,19.531,7.324
1709251380.441,35.156,39.062,-113.281,36.133,9.766
1709251380.445,40.039,37.109,-110.840,47.852,-0.488
1709251380.447,52.734,33.203,-155.273,39.551,-16.113
1709251380.451,40.527,31.738,-82.031,36.133,18.066
1709251380.455,20.508,32.715,-97.168,41.016,29.297
1709251380.459,22.949,33.203,-166.504,51.758,15.625
1709251380.463,36.621,28.809,-149.414,58.594,12.207
1709251380.467,33.691,30.273,-238.281,44.434,0.488
1709251380.471,16.602,39.062,-323.730,38.574,15.137
1709251380.474,14.648,41.504,-354.980,49.316,36.621
1709251380.478,24.902,39.551,-433.105,53.711,4.395
1709251380.482,27.344,35.156,-184.082,37.598,18.066
1709251380.486,36.621,38.574,-41.016,17.578,47.852
1709251380.490,45.898,43.457,-322.266,24.414,26.855
1709251380.507,46.875,39.062,-322.266,42.480,36.133
1709251380.511,45.898,34.668,-21.484,42.969,46.387
1709251380.515,45.898,40.039,-80.078,27.832,26.367
1709251380.519,43.945,42.480,-190.430,20.996,41.016
1709251380.523,39.062,41.016,-53.223,44.434,73.242
1709251380.527,41.016,40.039,-58.594,56.641,51.758
1709251380.531,32.715,39.062,-186.523,39.551,12.695
1709251380.534,26.855,42.480,-375.977,41.992,15.625
1709251380.538,38.086,40.527,-369.629,47.363,39.551
1709251380.542,60.059,39.551,-53.223,39.551,30.273
1709251380.546,52.734,41.992,-22.461,46.387,22.949
1709251380.550,16.113,34.668,-171.875,54.688,31.738
1709251380.537,25.391,31.738,-63.965,56.152,42.969
1709251380.541,63.477,40.039,135.742,64.941,51.758
1709251380.545,49.805,41.992,17.578,57.129,22.949
1709251380.549,19.531,41.992,-55.664,45.898,49.316
1709251380.553,9.766,38.574,20.020,38.574,62.988
1709251380.557,23.438,35.645,-21.484,44.922,32.715
1709251380.561,39.551,36.133,-88.379,56.152,54.199
1709251380.564,23.926,38.086,-116.211,53.711,41.992
1709251380.568,11.719,36.621,-17.578,48.828,51.758
1709251380.572,26.367,37.109,106.934,38.574,62.012
1709251380.576,38.086,37.598,-44.922,42.480,35.645
1709251380.580,31.738,42.480,-345.703,27.832,8.301
1709251380.583,22.461,49.316,-201.660,21.484,2.930
1709251380.587,38.086,53.223,16.113,38.086,27.344
1709251380.591,40.039,53.223,-38.574,37.109,33.691
1709251380.595,39.551,55.176,-35.156,30.273,49.805
1709251380.599,38.086,56.152,-11.230,26.855,39.062
1709251380.603,31.250,60.059,-123.047,38.574,18.066
1709251380.607,55.664,64.941,-311.523,49.316,4.883
1709251380.610,51.758,60.547,-237.305,28.320,24.414
1709251380.614,30.273,53.223,21.484,16.113,48.828
1709251380.618,26.855,54.199,-82.031,19.043,20.508
1709251380.622,35.156,53.711,-72.754,15.137,21.973
1709251380.626,47.363,48.340,69.336,22.461,32.227
1709251380.642,30.762,46.875,28.320,41.016,17.090
1709251380.646,13.184,45.898,-114.746,41.016,13.184
1709251380.650,4.883,44.434,-187.500,28.809,17.578
1709251380.654,2.441,47.363,2.930,43.457,50.293
1709251380.658,0.488,49.316,98.633,40.527,52.734
1709251380.662,0.488,53.711,-181.641,9.766,18.555
1709251380.666,24.414,55.176,-499.023,8.789,3.418
1709251380.669,36.133,44.434,-264.160,28.320,3.906
1709251380.673,19.531,40.527,67.383,20.996,32.715
1709251380.677,-11.230,34.668,-48.828,4.883,40.039
1709251380.681,-22.461,35.156,-154.785,11.230,-2.441
1709251380.685,5.371,45.898,21.973,35.156,23.438
1709251380.687,18.555,47.852,92.285,50.293,43.457
1709251380.691,13.672,48.340,-29.297,39.551,54.199
1709251380.695,4.883,44.434,-74.219,10.254,66.895
1709251380.699,13.184,40.527,10.742,15.137,44.434
1709251380.703,35.645,42.480,36.133,20.508,29.297
1709251380.707,26.367,45.898,-171.875,-0.488,12.207
1709251380.711,-3.906,44.922,-340.820,-3.906,0.488
1709251380.714,-0.488,38.574,-158.203,21.484,33.691
1709251380.718,22.949,37.598,65.430,42.969,47.852
1709251380.722,16.602,43.945,-252.930,32.715,26.855
1709251380.726,-18.066,40.527,-500.977,26.367,-16.602
1709251380.730,-6.836,33.691,-170.410,29.297,-26.367
1709251380.732,30.273,33.691,-70.312,26.855,-19.043
1709251380.736,23.438,34.180,-117.676,29.785,-10.742
1709251380.740,10.254,34.668,-19.531,3.418,54.688
1709251380.744,25.879,34.668,-52.246,-5.371,37.598
1709251380.748,72.754,29.785,-108.398,12.695,4.395
1709251380.752,65.918,31.250,-147.461,9.766,26.367
1709251380.756,-7.812,38.086,-217.773,2.441,37.598
1709251380.759,-21.973,36.621,-218.262,7.812,24.414
1709251380.763,8.301,33.203,-250.488,23.438,12.207
1709251380.767,37.598,35.156,-431.152,28.320,8.301
1709251380.771,28.809,35.645,-271.973,15.625,10.742
1709251380.775,3.906,36.621,-115.723,23.926,2.441
1709251380.777,27.344,34.668,-81.543,33.691,44.434
1709251380.781,39.062,30.762,3.418,22.949,48.828
1709251380.785,24.414,29.297,-70.801,15.625,-19.043
1709251380.789,16.602,31.250,-119.629,7.812,10.254
1709251380.793,23.926,30.273,-159.180,21.973,25.879
1709251380.797,30.273,29.785,-167.480,44.434,18.555
1709251380.801,14.648,32.227,-130.859,48.340,49.805
1709251380.804,-3.906,36.621,-119.629,37.109,46.387
1709251380.808,13.672,41.992,-422.363,13.184,-3.906
1709251380.812,30.762,41.504,-376.465,9.766,9.277
1709251380.816,30.273,38.574,81.055,16.113,83.008
1709251380.820,24.902,40.039,-137.207,3.418,49.805
1709251380.822,18.066,41.016,-401.367,2.930,-0.977
1709251380.826,17.090,29.785,-137.695,33.203,37.109
1709251380.830,23.926,30.273,2.441,47.852,30.273
1709251380.834,26.855,40.527,-187.988,19.531,-1.953
1709251380.838,19.531,41.992,-316.895,5.859,-4.883
1709251380.842,27.832,39.551,-273.438,8.789,17.090
1709251380.846,46.387,37.598,-157.227,19.531,54.688
1709251380.849,36.621,37.109,-263.672,30.273,46.387
1709251380.853,4.395,39.551,-462.891,12.695,31.738
1709251380.857,-3.906,38.086,-230.957,3.906,46.875
1709251380.861,29.297,35.156,-7.812,23.926,45.410
1709251380.865,50.781,38.086,-57.617,45.410,53.223
1709251380.868,35.645,40.039,-137.695,46.875,50.781
1709251380.872,-4.395,41.016,-91.797,14.160,59.570
1709251380.876,-2.930,38.574,-122.070,24.902,36.621
1709251380.880,30.762,33.203,-221.191,21.484,9.277
1709251380.884,44.434,31.738,-200.684,-6.348,37.109
1709251380.888,42.969,40.527,-254.883,19.043,31.250
1709251380.892,31.250,34.668,-261.719,26.367,27.832
1709251380.895,42.969,30.762,-358.398,0.488,19.531
1709251380.899,39.551,33.203,-377.930,-8.789,-2.441
1709251380.903,-7.324,28.320,-113.281,6.836,12.207
1709251380.907,-4.883,31.250,-77.637,36.133,21.484
1709251380.911,25.879,25.391,7.324,36.621,53.711
1709251380.912,8.789,30.762,93.750,22.949,39.551
1709251380.916,-3.418,41.992,130.371,10.742,55.176
1709251380.920,14.160,41.016,78.125,9.766,62.500
1709251380.924,53.223,26.855,145.996,35.645,37.109
1709251380.928,59.570,26.367,302.246,28.809,37.598
1709251380.932,26.855,33.203,205.566,27.344,18.555
1709251380.936,9.277,36.621,69.824,33.691,-12.207
1709251380.939,1.465,32.715,7.324,37.598,-7.812
1709251380.943,13.184,8.301,376.953,16.602,33.691
1709251380.947,19.043,22.461,705.078,16.602,39.551
1709251380.951,28.320,20.508,717.285,41.504,17.578
1709251380.955,56.641,-14.648,884.766,36.133,20.996
1709251380.957,46.875,4.883,-987.305,6.348,47.852
1709251380.961,6.348,52.734,993.652,-6.348,47.852
1709251380.965,-30.762,57.129,998.535,14.160,0.000
1709251380.969,-34.180,37.109,999.512,49.805,17.090
1709251380.973,-11.230,39.551,999.512,62.012,66.895
1709251380.977,7.324,31.250,999.512,55.176,16.602
1709251380.981,-6.836,30.273,999.512,62.012,-3.418
1709251380.984,-37.598,41.992,999.512,73.730,-5.859
1709251380.988,-47.363,32.715,999.512,72.754,-13.184
1709251380.992,-41.504,27.344,999.512,53.223,9.766
1709251380.996,-46.875,28.320,999.512,43.945,-31.738
1709251381.000,-52.734,24.414,999.512,37.598,-41.016
1709251381.002,-14.160,27.344,999.512,45.410,20.020
1709251381.006,33.691,23.438,999.512,52.734,21.484
1709251381.010,30.273,8.789,999.512,55.176,1.953
1709251381.014,3.906,0.488,999.512,41.992,24.414
1709251381.018,20.996,-0.488,999.512,40.527,32.715
1709251381.022,42.969,-0.488,999.512,50.293,36.133
1709251381.026,37.598,-0.977,999.512,50.781,2.930
1709251381.029,26.367,1.465,999.512,46.875,14.648
1709251381.033,30.273,1.953,999.512,49.316,28.809
1709251381.037,56.641,1.953,999.023,55.664,32.227
1709251381.041,60.547,3.906,998.047,57.129,30.273
1709251381.045,50.781,3.906,989.746,48.828,-1.953
1709251381.062,49.316,5.371,963.379,36.133,-24.902
1709251381.066,73.242,7.812,859.863,50.293,-1.953
1709251381.070,83.984,7.324,777.344,61.035,-0.488
1709251381.074,58.594,3.418,691.406,51.758,-19.043
1709251381.078,44.434,2.441,560.547,36.621,5.371
1709251381.082,68.848,2.441,343.750,47.363,15.137
1709251381.086,83.008,3.418,225.586,59.082,20.508
1709251381.089,62.500,2.930,286.133,34.180,32.227
1709251381.093,65.918,4.883,142.090,32.227,27.344
1709251381.097,74.219,5.859,-69.824,48.828,1.465
1709251381.101,75.684,0.000,-34.668,64.453,0.488
1709251381.105,81.543,0.000,-48.340,46.875,13.672
1709251381.109,66.406,7.812,-297.852,2.930,8.789
1709251381.113,66.406,13.184,-637.695,16.602,-12.695
1709251381.117,95.703,3.906,-540.039,15.137,6.836
1709251381.121,91.797,-6.348,-307.617,-7.324,15.137
1709251381.125,60.059,8.301,-484.375,-18.066,15.137
1709251381.129,48.340,16.602,-745.605,-21.973,-9.766
1709251381.133,72.266,10.742,-639.160,-1.465,-9.766
1709251381.136,65.918,8.301,-402.344,22.461,-1.953
1709251381.140,20.508,9.766,-545.898,20.996,-18.555
1709251381.144,7.812,19.043,-796.875,7.324,-15.137
1709251381.148,36.133,22.949,-441.406,0.000,40.527
1709251381.152,62.500,24.902,-192.871,3.418,54.199
1709251381.152,32.715,29.297,-369.629,-5.859,10.742
1709251381.156,0.488,29.297,-442.383,-26.367,17.578
1709251381.160,22.949,28.809,-337.891,6.348,39.062
1709251381.164,45.410,30.273,-272.461,17.578,19.531
1709251381.168,39.551,28.809,-371.582,-2.441,16.113
1709251381.172,28.809,30.273,-587.891,17.090,-4.395
1709251381.176,20.020,22.461,-522.949,12.207,24.902
1709251381.179,35.156,10.254,-246.094,6.836,30.273
1709251381.183,51.758,24.414,-391.602,10.254,27.344
1709251381.187,52.246,31.738,-551.758,-3.906,54.688
1709251381.191,42.969,31.738,-261.230,-11.719,41.504
1709251381.195,42.480,33.203,-90.332,0.977,79.590
1709251381.198,54.688,29.297,-132.812,11.719,49.805
1709251381.202,29.297,28.320,-138.184,-7.324,25.391
1709251381.206,-4.883,26.367,-135.742,-1.953,24.414
1709251381.210,13.672,22.461,-123.047,2.441,18.066
1709251381.214,46.387,26.367,4.883,-13.184,51.758
1709251381.218,38.574,27.832,-52.246,-11.230,22.461
1709251381.222,17.578,28.809,-192.383,-11.230,-12.695
1709251381.225,30.273,29.785,-178.223,-7.812,22.949
1709251381.229,44.434,22.461,-230.469,17.090,45.410
1709251381.233,35.156,18.555,-11.230,25.879,38.574
1709251381.237,16.113,14.160,186.523,27.344,36.133
1709251381.241,23.438,-1.465,62.988,20.508,8.789
1709251381.242,30.273,-2.930,130.371,1.953,17.578
1709251381.246,29.297,11.719,319.336,10.742,53.223
1709251381.250,23.926,18.555,280.273,20.020,51.270
1709251381.254,16.602,25.391,136.719,31.250,32.227
1709251381.258,20.996,21.973,191.895,47.852,33.203
1709251381.262,42.969,17.578,238.281,66.406,58.594
1709251381.266,33.691,15.625,99.609,62.012,36.133
1709251381.269,1.953,7.812,-235.840,14.160,-22.461
1709251381.273,10.254,4.395,-146.484,-3.418,10.742
1709251381.277,40.527,12.207,301.758,30.273,53.223
1709251381.281,39.551,22.461,148.926,42.480,7.812
1709251381.285,8.301,21.973,-42.969,30.273,12.695
1709251381.287,18.555,9.277,95.215,46.875,39.062
1709251381.291,50.293,2.441,238.281,64.941,45.898
1709251381.295,52.734,14.160,155.273,33.691,67.383
1709251381.299,25.879,23.438,-66.895,-3.418,43.457
1709251381.303,22.949,20.996,-27.344,0.000,50.781
1709251381.307,40.527,19.531,-7.324,30.762,59.082
1709251381.311,36.621,19.531,-157.227,42.969,41.016
1709251381.314,28.809,23.926,-354.004,33.691,31.738
1709251381.318,12.207,22.461,-231.445,32.715,32.227
1709251381.322,21.973,17.578,33.203,42.480,62.500
1709251381.326,49.316,21.973,49.316,60.059,83.008
1709251381.330,33.691,25.391,-38.574,59.082,91.309
1709251381.333,14.648,26.855,-101.074,52.246,30.762
1709251381.337,30.273,23.438,-142.578,52.246,14.160
1709251381.341,65.918,2.441,-207.031,41.504,41.992
1709251381.345,50.781,-25.391,-157.715,29.297,44.922
1709251381.349,12.207,-35.156,-92.773,33.203,47.852
1709251381.353,28.320,-30.762,-184.082,40.527,53.223
1709251381.357,44.434,-27.344,-351.074,37.598,68.848
1709251381.360,26.367,-33.691,-380.859,28.809,16.113
1709251381.364,-3.418,-45.898,-154.297,21.484,23.926
1709251381.368,-0.488,-52.734,-169.434,19.531,47.852
1709251381.372,35.156,-63.965,-206.543,32.227,33.203
1709251381.376,60.547,-62.012,-9.766,35.156,100.098
1709251381.378,41.504,-50.781,-78.613,27.344,60.547
1709251381.382,14.160,-49.805,-328.613,35.645,-3.906
1709251381.386,37.109,-48.340,-275.391,37.598,44.434
1709251381.390,57.617,-47.852,-84.961,38.086,69.824
1709251381.394,30.273,-44.922,-222.168,43.945,27.832
1709251381.398,0.488,-41.504,-486.328,33.203,6.836
1709251381.402,7.324,-37.109,-722.168,39.062,4.883
1709251381.405,36.133,-35.645,-411.133,51.270,54.688
1709251381.409,58.105,-32.715,-118.164,30.273,47.363
1709251381.413,49.805,-31.738,-327.637,5.371,10.742
1709251381.417,16.113,-41.016,-318.359,7.812,37.109
1709251381.421,14.648,-44.922,-157.715,37.109,34.180
1709251381.437,32.227,-32.715,-137.207,48.340,28.320
1709251381.441,18.555,-26.367,-294.434,37.598,17.090
1709251381.445,-1.953,-26.367,-426.270,22.949,-15.137
1709251381.449,18.066,-18.555,-336.914,12.695,-3.418
1709251381.453,30.273,-23.926,-143.555,20.996,36.621
1709251381.457,4.883,-25.391,-470.215,10.742,6.836
1709251381.461,-8.789,-25.879,-687.500,1.465,-16.113
1709251381.464,6.348,-36.621,-389.160,16.602,-4.883
1709251381.468,10.254,-35.156,-216.797,42.969,18.066
1709251381.472,-5.371,-23.926,-310.059,51.270,40.527
1709251381.476,-28.320,-30.273,-353.516,32.227,28.809
1709251381.480,-14.160,-28.320,-209.961,27.832,11.719
1709251381.482,25.879,-15.137,-149.902,28.320,39.551
1709251381.486,31.250,-17.090,-201.660,-1.953,31.250
1709251381.490,27.344,-11.230,-235.352,-10.254,16.113
1709251381.494,10.742,0.488,-237.793,-4.883,20.020
1709251381.498,-3.418,2.441,-232.910,-1.465,36.621
1709251381.502,12.207,-11.230,-310.059,19.531,52.734
1709251381.506,5.859,-18.066,-383.789,21.973,67.383
1709251381.509,-10.742,-11.719,-334.961,0.977,43.457
1709251381.513,6.348,-0.977,-393.066,12.695,13.184
1709251381.517,25.391,22.461,-492.676,31.738,38.574
1709251381.521,20.508,41.504,-429.199,22.461,16.113
1709251381.525,28.809,37.598,-391.602,20.508,-14.648
1709251381.528,49.316,12.695,-440.430,18.555,0.000
1709251381.532,42.480,-9.766,-338.379,-1.465,40.039
1709251381.536,27.344,-8.789,-164.551,4.883,69.336
1709251381.540,13.672,-26.855,-262.207,20.020,55.664
1709251381.544,10.254,-42.969,-355.957,28.320,43.457
1709251381.548,26.367,-5.859,-354.980,32.715,37.598
1709251381.552,42.969,-15.137,-392.578,28.320,15.137
1709251381.555,32.227,-53.711,-460.938,11.719,17.090
1709251381.559,25.391,-50.781,-667.480,3.906,16.602
1709251381.563,39.551,-57.617,-531.738,23.926,31.250
1709251381.567,33.203,-56.152,-154.785,36.621,56.641
1709251381.571,26.855,-26.367,-318.848,37.598,5.859
1709251381.573,5.859,-3.418,-500.977,18.555,-6.348
1709251381.577,-5.859,-25.391,-409.180,-2.441,20.020
1709251381.581,18.555,-45.898,-224.121,7.324,40.527
1709251381.585,25.391,-55.664,-335.938,25.879,24.902
1709251381.589,7.812,-82.031,-530.762,15.137,25.879
1709251381.593,6.836,-81.055,-396.973,16.113,79.102
1709251381.597,41.016,-61.035,-326.172,48.340,36.133
1709251381.600,43.457,-31.250,-446.289,39.551,-11.230
1709251381.604,9.277,-13.672,-721.191,20.508,-6.836
1709251381.608,4.883,-30.762,-478.516,7.324,46.387
1709251381.612,29.297,-26.855,-143.555,8.301,70.312
1709251381.616,35.156,8.301,-236.816,24.414,39.551
1709251381.617,9.766,33.691,-303.711,37.109,46.387
1709251381.621,-8.301,69.824,-319.824,10.742,14.160
1709251381.625,17.090,123.047,-264.160,-1.465,9.277
1709251381.629,26.855,162.598,-279.297,22.461,6.348
1709251381.633,9.277,141.602,-401.367,9.766,9.277
1709251381.637,9.277,81.543,-431.641,3.906,47.852
1709251381.641,17.578,20.996,-395.508,12.695,28.809
1709251381.644,31.738,22.949,-503.906,17.090,23.926
1709251381.648,15.137,31.738,-608.398,21.973,17.090
1709251381.652,-12.695,-33.691,-346.680,5.859,23.438
1709251381.656,5.859,-88.867,-198.730,10.254,57.617
1709251381.660,33.203,-110.352,-192.383,31.250,43.945
1709251381.662,41.016,-136.230,-175.781,33.691,9.277
1709251381.666,23.926,-112.793,-171.875,20.020,39.551
1709251381.670,8.301,-35.156,-303.223,20.508,11.719
1709251381.674,13.672,-40.527,-312.012,44.434,-21.973
1709251381.678,14.160,-63.477,-136.230,30.273,20.996
1709251381.682,7.324,-27.832,-290.527,20.508,-2.441
1709251381.686,12.695,-16.602,-462.891,19.531,3.418
1709251381.689,38.086,-51.270,-568.848,30.273,23.438
1709251381.693,39.062,-75.195,-338.379,40.039,18.555
1709251381.697,23.926,-39.551,-91.309,36.133,15.625
1709251381.701,14.648,-44.434,-264.648,44.922,-15.137
1709251381.705,20.508,-143.066,-212.402,55.176,8.301
1709251381.707,41.504,-199.219,-34.668,68.359,24.902
1709251381.711,37.598,-195.312,-68.359,58.105,14.160
1709251381.715,8.301,-185.547,-190.430,33.691,29.785
1709251381.719,14.648,-189.941,-177.246,39.551,38.086
1709251381.723,43.945,-173.340,-17.578,37.109,54.688
1709251381.727,53.223,-127.930,-47.363,13.184,67.871
1709251381.731,21.973,-113.281,-412.598,-4.883,47.852
1709251381.734,-1.465,-100.586,-444.824,4.395,38.086
1709251381.738,21.973,-93.750,-65.430,22.461,30.273
1709251381.742,33.203,-88.379,-53.223,34.180,16.113
1709251381.746,10.742,-83.984,-210.938,42.969,38.574
1709251381.750,18.066,-96.191,-208.984,30.762,44.922
1709251381.752,46.387,-102.051,-84.473,10.254,17.090
1709251381.756,51.270,-91.309,-93.750,4.395,17.090
1709251381.760,30.273,-83.008,-214.355,-3.418,28.809
1709251381.764,0.488,-88.867,-199.707,-5.859,28.809
1709251381.768,12.695,-97.656,-124.023,19.531,21.973
1709251381.772,50.293,-106.445,-254.395,39.551,1.465
1709251381.776,48.828,-112.793,-508.301,37.109,-3.418
1709251381.779,17.578,-114.258,-360.840,27.832,22.461
1709251381.783,7.324,-104.980,-186.523,25.879,22.949
1709251381.787,28.320,-93.750,-199.219,26.367,9.277
1709251381.791,21.973,-91.309,-165.039,41.504,35.645
1709251381.795,-0.977,-84.961,-174.805,36.133,31.738
1709251381.812,-5.859,-79.102,-209.961,20.508,38.574
1709251381.816,17.090,-72.266,-252.930,34.668,38.086
1709251381.820,33.203,-71.289,-197.754,41.992,27.344
1709251381.824,8.301,-71.289,-157.715,34.668,28.320
1709251381.828,-8.789,-59.570,-208.008,24.902,32.227
1709251381.832,26.855,-52.246,-291.992,44.434,51.270
1709251381.836,47.852,-49.805,-333.008,48.340,37.109
1709251381.839,12.207,-55.176,-199.219,28.320,37.598
1709251381.843,2.930,-49.316,-186.523,12.207,46.387
1709251381.847,19.531,-42.969,-453.613,21.484,4.395
1709251381.851,29.785,-49.316,-373.535,36.133,6.836
1709251381.855,30.273,-47.363,-104.980,15.137,48.828
1709251381.858,1.953,-37.109,-254.883,14.160,37.598
1709251381.862,6.348,-29.785,-390.137,31.250,6.348
1709251381.866,41.504,-25.879,-156.738,30.273,61.035
1709251381.870,38.574,-22.461,-177.734,18.066,41.992
1709251381.874,12.695,-10.742,-531.738,18.066,-29.785
1709251381.878,-1.465,-5.371,-632.324,19.043,-2.930
1709251381.882,30.273,-4.883,-440.918,18.555,35.645
1709251381.885,47.852,9.766,-211.914,18.066,42.969
1709251381.889,17.578,20.996,-364.258,14.648,25.879
1709251381.893,-3.418,7.324,-695.801,10.254,-14.160
1709251381.897,13.184,-10.254,-411.133,14.648,9.277
1709251381.901,41.992,-4.395,-115.234,38.086,55.664
1709251381.902,37.598,3.418,-244.141,35.645,45.410
1709251381.906,19.531,2.930,-376.465,14.160,21.484
1709251381.910,30.273,3.418,-297.363,17.578,22.949
1709251381.914,50.293,-1.465,-227.539,29.785,13.672
1709251381.918,46.387,-6.348,-313.477,36.133,2.441
1709251381.922,14.648,-7.324,-441.406,31.250,30.762
1709251381.926,5.859,-11.719,-467.285,32.227,49.316
1709251381.929,33.203,-10.254,-372.559,42.480,40.527
1709251381.933,62.012,-3.906,-500.000,34.180,53.711
1709251381.937,37.598,-2.930,-659.668,14.160,31.738
1709251381.941,8.789,-5.371,-414.551,7.812,11.230
1709251381.945,32.715,-5.371,-281.250,30.762,22.949
1709251381.947,53.711,-3.906,-256.836,42.969,37.109
1709251381.951,32.227,-2.441,-209.473,29.297,52.734
1709251381.955,5.371,-6.836,-220.703,29.785,64.941
1709251381.959,24.902,-0.488,-244.629,47.363,71.777
1709251381.963,49.316,12.207,-213.867,50.293,57.129
1709251381.967,32.227,15.137,-299.316,32.715,33.203
1709251381.971,4.883,12.695,-433.594,11.719,15.137
1709251381.974,15.625,5.859,-456.055,23.926,16.113
1709251381.978,48.340,9.766,-420.898,39.551,61.035
1709251381.982,42.969,15.625,-245.605,30.762,85.938
1709251381.986,11.719,14.160,-280.273,27.832,28.320
1709251381.990,10.254,12.207,-373.535,38.086,30.762
1709251381.992,37.109,10.742,-275.391,66.895,47.363
1709251381.996,47.363,8.301,-40.527,42.480,67.383
1709251382.000,37.598,5.859,-61.035,-6.836,94.727
1709251382.004,20.508,10.742,-263.672,5.859,45.410
1709251382.008,10.742,19.043,-198.730,26.367,41.992
1709251382.012,19.531,22.949,-202.148,45.410,22.949
1709251382.016,34.668,24.902,-318.359,53.711,25.879
1709251382.019,25.879,28.320,-574.219,38.086,23.438
1709251382.023,14.648,25.879,-541.992,25.879,10.742
1709251382.027,26.367,22.949,-90.332,32.715,52.246
1709251382.031,22.461,28.809,-126.953,32.227,42.969
1709251382.035,20.996,33.203,-268.066,25.391,48.828
1709251382.038,29.785,31.250,-334.473,12.207,19.043
1709251382.042,38.086,29.297,-225.586,11.230,12.695
1709251382.046,53.223,33.203,-181.641,20.508,38.574
1709251382.050,29.297,36.621,-387.695,22.949,23.926
1709251382.054,4.395,35.645,-283.203,22.949,48.828
1709251382.058,33.203,40.039,-236.328,26.855,40.039
1709251382.062,47.852,41.504,-399.902,47.363,8.789
1709251382.065,21.484,42.969,-559.570,42.480,23.438
1709251382.069,10.254,43.945,-371.582,25.879,46.387
1709251382.073,36.133,52.246,-171.387,31.250,58.594
1709251382.077,58.594,64.941,-326.172,41.504,30.273
1709251382.081,62.012,66.895,-416.504,20.996,19.531
1709251382.082,44.922,68.359,-422.852,3.906,20.996
1709251382.086,32.227,71.289,-358.887,6.836,42.969
1709251382.090,34.668,67.383,-310.547,13.672,42.480
1709251382.094,48.828,67.383,-410.156,23.926,21.484
1709251382.098,54.199,73.242,-495.117,33.203,16.113
1709251382.102,37.598,75.684,-485.840,33.203,15.137
1709251382.106,43.457,77.148,-643.555,41.504,-16.602
1709251382.109,53.711,76.172,-685.059,42.969,-15.625
1709251382.113,34.668,70.312,-412.598,37.598,9.277
1709251382.117,26.367,69.824,-387.207,40.527,-7.324
1709251382.121,45.410,71.289,-345.703,68.359,8.789
1709251382.125,55.176,70.801,-187.988,65.430,28.320
1709251382.127,48.828,73.242,-190.430,12.695,34.180
1709251382.131,40.039,75.195,-326.172,1.953,42.480
1709251382.135,35.645,67.871,-320.801,41.992,45.898
1709251382.139,44.922,63.965,-216.309,62.500,12.695
1709251382.143,40.527,64.453,-233.887,55.176,0.488
1709251382.147,24.902,65.430,-488.770,29.785,-0.977
1709251382.151,20.996,64.941,-666.992,19.043,9.766
1709251382.154,29.297,59.082,-396.484,36.133,1.953
1709251382.158,34.180,58.594,-197.266,28.320,11.719
1709251382.162,25.391,64.453,-404.785,14.648,6.348
1709251382.166,15.625,64.941,-476.562,25.879,5.371
1709251382.170,34.668,63.477,-307.617,30.273,18.066
1709251382.187,51.270,62.988,-194.336,15.137,24.414
1709251382.191,20.020,70.801,-410.156,4.395,29.785
1709251382.195,7.324,77.148,-566.406,-1.953,13.672
1709251382.199,46.387,73.730,-276.367,25.879,20.996
1709251382.203,69.824,66.895,-147.949,26.855,40.527
1709251382.207,33.203,61.035,-325.195,3.418,42.969
1709251382.211,15.137,61.035,-573.730,20.020,-13.184
1709251382.214,40.527,55.664,-406.738,43.945,-3.906
1709251382.218,43.945,47.363,-103.027,54.688,63.477
1709251382.222,34.180,50.781,-464.355,39.551,24.902
1709251382.226,3.418,48.828,-676.758,20.020,-6.836
1709251382.230,-4.883,38.574,-305.664,21.484,14.160
1709251382.232,30.762,42.969,-206.543,18.555,20.020
1709251382.236,41.504,48.828,-265.137,34.180,12.695
1709251382.240,14.648,46.387,-254.883,26.855,23.438
1709251382.244,15.137,42.480,-180.664,24.902,58.594
1709251382.248,43.457,37.598,-171.875,41.016,61.523
1709251382.252,41.504,40.039,-289.062,41.504,35.645
1709251382.256,13.672,40.527,-387.695,30.273,24.414
1709251382.259,-5.371,37.109,-372.070,20.996,-6.348
1709251382.263,20.508,38.574,-353.516,49.316,7.324
1709251382.267,42.969,36.621,-413.574,68.848,44.434
1709251382.271,26.855,39.062,-288.574,53.711,24.414
1709251382.275,8.301,46.875,-194.824,50.293,38.086
1709251382.277,29.785,41.016,-293.457,35.156,24.902
1709251382.281,62.012,35.156,-226.074,13.672,13.672
1709251382.285,39.551,50.781,-115.234,29.297,28.320
1709251382.289,3.418,46.387,-175.781,13.672,48.340
1709251382.293,20.020,117.676,-297.852,-2.930,24.902
1709251382.297,43.457,254.883,-346.191,41.504,-8.789
1709251382.301,36.621,306.152,-298.828,52.246,13.672
1709251382.304,4.395,314.941,-257.324,7.324,18.555
1709251382.308,16.113,311.523,-521.484,6.348,4.883
1709251382.312,43.457,299.805,-503.418,9.766,24.902
1709251382.316,16.602,289.551,-133.301,-0.488,41.992
1709251382.320,1.953,279.785,-234.375,7.324,30.762
1709251382.322,6.348,262.695,-435.547,15.625,-2.441
1709251382.326,26.855,247.070,-319.336,25.879,1.465
1709251382.330,50.293,236.328,-132.324,37.109,42.969
1709251382.334,29.785,224.609,-357.422,33.203,27.344
1709251382.338,4.395,212.402,-617.188,26.367,-22.461
1709251382.342,22.461,197.266,-486.816,16.602,11.719
1709251382.346,42.969,190.430,-295.410,27.832,68.359
1709251382.349,41.992,187.012,-364.258,19.043,52.734
1709251382.353,18.066,175.781,-662.598,-7.812,5.859
1709251382.357,-3.418,163.574,-495.117,-14.648,43.457
1709251382.361,18.066,157.227,-251.953,12.207,58.594
1709251382.365,20.020,135.254,-395.020,28.809,-3.418
1709251382.367,-22.461,123.047,-601.562,6.348,30.762
1709251382.371,-22.461,135.742,-653.320,16.602,39.062
1709251382.375,29.297,132.324,-380.371,46.875,41.992
1709251382.379,37.598,124.023,-217.773,29.297,46.875
1709251382.383,0.977,119.629,-432.129,-7.324,22.949
1709251382.387,-14.160,113.281,-646.484,-5.371,41.992
1709251382.391,35.156,104.980,-527.344,32.227,30.273
1709251382.394,56.152,104.980,-449.707,62.500,11.719
1709251382.398,14.648,104.492,-599.121,67.871,13.184
1709251382.402,-5.371,96.680,-509.277,40.039,29.297
1709251382.406,23.438,92.773,-356.934,4.395,41.504
1709251382.410,66.406,91.309,-146.973,20.508,38.574
1709251382.412,69.824,88.867,-17.090,40.527,37.109
1709251382.416,33.691,84.473,-101.562,31.738,22.461
1709251382.420,19.043,79.102,-233.887,34.668,10.742
1709251382.424,39.062,69.336,-184.082,57.129,28.320
1709251382.428,41.992,63.477,-66.406,70.801,43.457
1709251382.432,26.367,69.824,-200.195,36.133,42.969
1709251382.436,18.555,73.242,-504.883,26.855,-6.836
1709251382.439,39.062,70.312,-577.637,37.109,-14.160
1709251382.443,52.734,63.965,-226.074,24.902,50.293
1709251382.447,38.086,65.430,-173.828,16.113,45.410
1709251382.451,20.020,59.570,-454.590,18.066,-3.418
1709251382.455,16.602,51.758,-446.289,31.738,-24.414
1709251382.457,43.945,62.012,-125.000,34.180,25.391
1709251382.461,42.969,64.453,-65.918,30.762,61.523
1709251382.465,13.184,60.547,-258.301,31.250,38.086
1709251382.469,21.973,61.035,-299.805,44.922,9.277
1709251382.473,59.082,57.617,-140.625,49.316,20.996
1709251382.477,62.500,54.688,-184.082,37.598,32.715
1709251382.481,34.668,57.617,-565.918,20.996,16.113
1709251382.484,17.578,54.688,-595.703,17.578,22.949
1709251382.488,21.973,48.340,-186.035,25.391,28.809
1709251382.492,19.531,49.805,-163.574,36.621,-0.488
1709251382.496,-1.465,50.293,-269.531,41.504,13.184
1709251382.500,-3.418,47.852,-267.090,59.082,51.270
1709251382.503,30.273,46.387,-228.027,80.078,35.645
1709251382.507,63.477,49.316,-206.055,41.016,8.789
1709251382.511,51.758,48.828,-349.121,4.883,10.254
1709251382.515,26.367,40.527,-320.312,-5.371,24.414
1709251382.519,24.902,36.133,-173.828,5.859,32.715
1709251382.523,38.574,41.992,-272.461,37.598,18.066
1709251382.527,34.668,44.922,-475.098,38.086,39.062
1709251382.530,10.742,41.016,-377.441,22.949,33.691
1709251382.534,26.367,39.062,-211.914,32.715,30.273
1709251382.538,43.457,38.574,-171.387,45.898,52.734
1709251382.542,38.574,42.969,-155.273,43.457,49.316
1709251382.546,22.949,44.434,-162.109,26.855,46.387
1709251382.562,14.648,43.457,-203.613,35.156,50.293
1709251382.566,45.410,40.039,-142.090,49.805,77.148
1709251382.570,45.410,35.645,-158.203,51.270,42.969
1709251382.574,7.324,42.969,-324.707,51.270,3.906
1709251382.578,-5.371,49.316,-293.945,37.109,25.879
1709251382.582,28.320,49.316,-423.340,57.129,18.066
1709251382.586,49.316,46.387,-597.168,44.434,-8.301
1709251382.589,26.367,41.992,-278.809,14.160,32.227
1709251382.593,14.160,45.898,-272.949,17.090,16.113
1709251382.597,30.273,44.434,-363.281,20.996,-9.766
1709251382.601,49.805,41.016,-178.223,35.156,33.203
1709251382.605,39.551,45.898,-184.082,51.758,30.273
1709251382.607,34.180,46.387,-348.633,60.547,11.719
1709251382.611,39.551,45.898,-436.523,23.438,-2.441
1709251382.615,51.758,44.434,-280.273,-9.766,11.230
1709251382.619,51.758,42.969,-211.914,5.371,7.324
1709251382.623,28.320,41.992,-364.258,10.742,26.855
1709251382.627,18.066,41.504,-525.879,3.418,45.410
1709251382.631,41.016,38.086,-511.230,11.230,12.207
1709251382.634,56.152,37.109,-376.953,15.137,34.180
1709251382.638,37.109,39.062,-456.543,17.090,36.621
1709251382.642,8.301,41.504,-836.914,15.137,-12.207
1709251382.646,3.418,39.062,-626.465,19.531,12.207
1709251382.650,30.762,35.645,-212.891,36.133,46.875
1709251382.652,28.320,40.527,-296.875,26.855,41.504
1709251382.656,16.113,43.457,-415.527,14.648,25.879
1709251382.660,22.949,42.969,-322.754,30.273,37.598
1709251382.664,47.852,42.480,-181.152,24.414,69.336
1709251382.668,42.480,44.434,-295.898,10.254,34.668
1709251382.672,5.371,42.480,-492.676,11.719,15.625
1709251382.676,8.301,37.598,-503.418,10.254,46.875
1709251382.679,20.508,39.551,-320.312,28.320,48.340
1709251382.683,13.184,44.434,-448.242,41.016,41.016
1709251382.687,17.090,48.828,-663.574,38.086,31.738
1709251382.691,13.672,38.574,-377.441,29.785,29.785
1709251382.695,25.879,33.203,-198.242,50.293,50.781
1709251382.697,47.852,40.039,-172.363,50.781,61.035
1709251382.701,42.480,41.992,-202.637,45.898,32.227
1709251382.705,24.902,44.922,-286.621,41.016,3.906
1709251382.709,17.090,46.387,-301.758,23.438,13.184
1709251382.713,35.645,43.457,-222.168,32.227,33.203
1709251382.717,34.180,47.363,-242.188,20.996,41.992
1709251382.721,11.719,47.852,-405.273,7.324,19.043
1709251382.724,16.113,44.434,-505.371,29.297,-3.418
1709251382.728,42.969,44.922,-482.910,39.551,14.648
1709251382.732,26.855,41.504,-258.789,25.879,19.531
1709251382.736,-0.488,42.480,-198.242,19.043,10.254
1709251382.740,0.000,42.480,-331.055,12.695,11.719
1709251382.742,-2.930,35.645,-322.266,13.184,4.883
1709251382.746,4.395,31.738,-81.055,19.043,64.941
1709251382.750,5.859,33.691,-68.359,14.160,89.844
1709251382.754,-6.836,38.086,-393.555,18.555,29.785
1709251382.758,9.766,36.621,-382.324,34.180,26.367
1709251382.762,27.344,36.621,-239.258,21.484,56.152
1709251382.766,6.836,40.527,-317.871,-10.254,46.387
1709251382.769,-11.230,41.504,-630.859,-3.418,-5.859
1709251382.773,6.836,41.504,-651.855,12.695,-10.742
1709251382.777,28.320,41.016,-208.496,24.902,31.738
1709251382.781,25.879,46.387,-219.727,19.043,26.367
1709251382.785,10.254,50.293,-364.258,2.441,34.668
1709251382.787,31.250,47.363,-331.543,18.555,28.320
1709251382.791,54.199,42.480,-209.961,37.598,14.648
1709251382.795,35.156,44.922,-236.328,43.457,52.734
1709251382.799,8.301,47.363,-415.039,44.922,44.434
1709251382.803,-0.977,43.945,-358.398,29.785,33.203
1709251382.807,26.367,48.340,-332.520,30.273,20.996
1709251382.811,58.105,46.387,-378.418,36.621,41.016
1709251382.814,44.922,45.898,-633.301,-0.488,25.391
1709251382.818,23.926,50.781,-577.637,-17.578,-7.812
1709251382.822,42.480,43.457,-181.641,15.137,43.457
1709251382.826,40.039,37.598,-109.863,27.832,66.895
1709251382.830,9.277,40.039,-144.043,13.184,71.289
1709251382.832,6.836,44.434,-249.023,8.301,15.625
1709251382.836,32.227,41.504,-208.984,26.367,23.926
1709251382.840,44.434,37.109,-112.793,36.133,61.523
1709251382.844,22.949,34.180,-162.109,29.785,36.133
1709251382.848,-1.953,38.574,-197.754,27.344,44.434
1709251382.852,6.348,38.574,-289.062,41.992,45.410
1709251382.856,41.504,37.598,-434.082,64.941,14.648
1709251382.859,47.363,40.527,-458.008,67.383,1.953
1709251382.863,8.789,41.992,-293.945,43.457,35.645
1709251382.867,2.441,42.969,-351.562,17.090,33.203
1709251382.871,44.434,42.480,-255.859,30.273,18.555
1709251382.875,64.941,41.992,62.012,55.664,75.684
1709251382.877,36.621,46.875,-67.871,42.969,72.754
1709251382.881,10.742,51.758,-439.453,17.578,28.320
1709251382.885,37.598,47.363,-377.930,30.762,31.738
1709251382.889,86.426,43.457,-28.809,61.035,57.617
1709251382.893,59.570,48.828,-62.012,40.039,64.453
1709251382.897,13.184,52.246,-562.988,26.855,16.113
1709251382.901,13.672,44.922,-879.883,30.273,-13.672
1709251382.904,30.273,36.133,-546.875,17.578,9.277
1709251382.908,44.922,34.668,-396.973,8.789,0.977
1709251382.912,25.391,35.645,-705.078,4.883,-25.391
1709251382.916,16.113,32.227,-733.887,2.930,-35.156
1709251382.920,35.156,30.762,-389.648,4.883,7.324
1709251382.937,33.691,33.203,-233.887,10.742,52.246
1709251382.941,24.902,36.621,-361.816,12.695,56.641
1709251382.945,23.926,42.969,-425.293,14.648,57.617
1709251382.949,24.902,41.992,-285.156,42.480,54.688
1709251382.953,36.621,40.527,-235.840,46.875,33.203
1709251382.957,31.250,45.898,-443.848,23.926,13.672
1709251382.961,16.602,42.969,-590.332,18.555,21.973
1709251382.964,36.133,39.551,-403.320,20.508,28.320
1709251382.968,50.293,40.527,-176.270,24.414,52.734
1709251382.972,32.227,38.086,-438.477,23.438,37.598
1709251382.976,11.719,41.016,-552.734,17.578,21.973
1709251382.980,2.441,40.039,-322.266,38.574,55.176
1709251382.982,7.324,37.109,-277.832,66.895,41.504
1709251382.986,17.578,40.039,-354.492,49.805,11.719
1709251382.990,5.859,38.574,-308.594,29.785,41.992
1709251382.994,4.883,37.109,-211.426,20.996,57.617
1709251382.998,47.852,35.156,-221.680,34.180,40.527
1709251383.002,71.289,33.203,-293.945,45.410,39.551
1709251383.006,16.602,38.086,-395.508,27.832,32.227
1709251383.009,-14.648,41.016,-303.223,17.090,49.316
1709251383.013,0.000,41.504,-333.008,20.020,33.691
1709251383.017,24.902,42.480,-499.023,33.691,12.207
1709251383.021,35.645,41.504,-385.254,9.766,3.906
1709251383.025,21.484,43.457,-363.770,-0.488,9.277
1709251383.027,39.551,46.875,-404.297,35.156,0.488
1709251383.031,47.363,43.457,-172.363,27.344,70.312
1709251383.035,28.809,44.922,-174.316,14.648,79.102
1709251383.039,29.297,50.293,-444.824,40.527,-17.090
1709251383.043,35.645,46.875,-499.512,41.992,-12.695
1709251383.047,44.922,43.945,-400.879,25.879,33.203
1709251383.051,36.133,45.410,-335.449,37.109,26.855
1709251383.054,21.973,51.758,-356.445,51.758,7.324
1709251383.058,19.043,55.664,-618.164,52.246,-28.320
1709251383.062,37.598,54.199,-570.801,57.129,-24.902
1709251383.066,47.852,50.781,-131.836,45.898,21.973
1709251383.070,35.645,48.828,-182.617,44.434,32.227
1709251383.073,21.484,50.781,-368.164,46.387,33.203
1709251383.077,19.531,44.922,-198.730,42.480,50.293
1709251383.081,39.062,41.504,10.254,52.734,62.988
1709251383.085,39.062,42.480,-103.027,61.035,62.988
1709251383.089,23.926,42.969,-281.250,39.062,32.227
1709251383.093,24.902,40.039,-316.895,20.996,14.648
1709251383.097,50.781,36.133,-291.992,50.781,2.441
1709251383.100,63.477,41.992,-371.094,57.617,-15.625
1709251383.104,32.715,45.898,-608.398,36.133,34.668
1709251383.108,17.578,40.039,-460.449,24.414,55.176
1709251383.112,45.898,38.086,-98.633,23.926,49.805
1709251383.116,49.316,38.086,-140.137,21.973,34.668
1709251383.117,35.645,39.062,-269.531,29.297,20.996
1709251383.121,25.879,42.969,-259.277,33.203,28.320
1709251383.125,33.691,39.062,-172.852,25.879,46.875
1709251383.129,67.383,41.016,-195.312,36.133,38.574
1709251383.133,53.223,49.316,-323.730,31.250,18.555
1709251383.137,36.133,51.270,-467.773,16.602,21.973
1709251383.141,49.805,49.805,-501.465,35.645,5.371
1709251383.144,62.012,51.758,-612.305,49.805,-5.371
1709251383.148,32.227,53.223,-628.418,37.598,49.805
1709251383.152,13.672,50.293,-476.074,34.180,3.906
1709251383.156,32.715,50.293,-427.734,42.480,-10.254
1709251383.160,41.504,50.781,-325.684,55.664,69.824
1709251383.163,41.504,49.805,-272.949,49.316,53.711
1709251383.167,38.574,49.805,-280.273,35.156,46.875
1709251383.171,30.273,52.246,-385.254,46.387,38.086
1709251383.175,27.832,54.199,-334.473,52.246,39.551
1709251383.179,34.180,54.688,-178.711,47.363,59.570
1709251383.183,17.578,53.711,-385.254,35.645,26.855
1709251383.187,9.766,51.270,-567.383,41.504,39.062
1709251383.190,34.668,50.293,-610.352,46.875,22.461
1709251383.194,41.016,43.945,-384.277,24.414,7.812
1709251383.198,29.785,43.457,-222.168,26.367,31.250
1709251383.202,14.160,47.852,-368.652,26.367,35.645
1709251383.206,10.742,49.805,-388.184,27.832,40.527
1709251383.208,27.832,47.852,-158.691,45.410,58.594
1709251383.212,28.320,47.363,-125.488,36.621,37.109
1709251383.216,12.695,43.945,-435.059,18.066,-4.395
1709251383.220,1.953,39.062,-484.375,23.438,-1.465
1709251383.224,20.996,39.551,-148.926,46.875,58.105
1709251383.228,41.992,41.992,-193.848,35.645,45.410
1709251383.232,23.438,40.039,-589.355,-1.465,19.043
1709251383.235,11.230,35.156,-618.164,-1.465,29.297
1709251383.239,27.832,35.645,-218.750,23.438,39.551
1709251383.243,30.762,35.645,-71.777,36.621,82.520
1709251383.247,7.812,37.598,-276.367,20.020,41.992
1709251383.251,-1.465,41.504,-353.027,5.859,13.672
1709251383.253,29.297,41.016,-164.551,10.254,55.664
1709251383.257,45.410,39.062,-195.801,19.043,21.484
1709251383.261,22.461,41.992,-429.199,31.250,-6.836
1709251383.265,1.465,40.527,-429.199,30.273,15.625
1709251383.269,20.508,39.062,-287.598,17.578,17.578
1709251383.273,50.293,42.969,-313.477,10.254,25.391
1709251383.277,36.133,47.852,-660.645,10.254,22.949
1709251383.280,12.207,46.875,-625.977,-3.906,28.809
1709251383.284,19.043,46.387,-274.414,8.301,54.199
1709251383.288,41.504,46.387,-266.602,39.551,31.738
1709251383.292,52.246,44.922,-302.246,35.156,9.277
1709251383.296,20.508,45.410,-249.023,24.902,58.105
1709251383.312,-5.371,44.434,-293.945,34.180,56.641
1709251383.316,18.066,48.828,-306.641,38.086,34.668
1709251383.320,29.785,53.223,-233.887,25.879,52.734
1709251383.324,6.348,52.734,-263.672,19.043,43.945
1709251383.328,12.207,52.734,-356.934,7.812,40.527
1709251383.332,41.992,51.270,-605.469,24.414,8.789
1709251383.336,48.340,47.852,-637.695,44.922,4.395
1709251383.339,11.230,48.828,-403.809,29.785,10.742
1709251383.343,-16.602,52.246,-402.344,20.508,9.277
1709251383.347,0.977,53.711,-566.895,23.926,4.395
1709251383.351,24.414,52.246,-416.992,29.785,22.461
1709251383.355,27.832,49.805,-161.133,14.648,72.266
1709251383.358,12.695,57.617,-339.844,-5.371,53.223
1709251383.362,8.789,62.500,-464.355,-2.930,31.738
1709251383.366,24.414,61.035,-301.758,14.648,40.039
1709251383.370,33.203,62.988,-232.422,20.996,35.645
1709251383.374,7.812,66.406,-410.645,20.020,22.949
1709251383.378,8.789,65.430,-644.531,29.785,-8.301
1709251383.382,20.020,58.105,-515.625,41.016,22.461
1709251383.385,15.137,54.199,-288.574,35.156,48.828
1709251383.389,7.812,57.129,-479.492,25.879,11.719
1709251383.393,2.930,59.082,-899.414,8.789,-7.812
1709251383.397,21.484,51.758,-669.922,9.277,17.090
1709251383.401,29.297,47.852,-217.773,27.832,35.156
1709251383.402,21.484,52.246,-330.566,16.113,5.371
1709251383.406,7.324,41.992,-444.336,17.090,-7.324
1709251383.410,11.230,33.691,-262.695,34.668,44.922
1709251383.414,23.438,38.086,-91.309,30.762,78.125
1709251383.418,20.508,36.133,-213.379,32.715,29.297
1709251383.422,0.977,38.086,-458.984,43.457,-7.324
1709251383.426,18.555,38.086,-498.047,45.898,8.789
1709251383.429,37.109,32.715,-318.848,29.785,13.672
1709251383.433,32.715,42.480,-485.840,6.836,-17.090
1709251383.437,11.230,49.316,-601.562,2.441,-15.137
1709251383.441,-1.953,48.828,-409.668,11.230,1.465
1709251383.445,22.949,52.246,-401.367,41.992,1.465
1709251383.447,42.480,51.270,-358.398,63.965,-0.977
1709251383.451,20.508,51.758,-315.918,55.664,-3.418
1709251383.455,-8.789,52.246,-292.969,19.043,12.207
1709251383.459,17.090,52.246,-280.762,8.301,43.945
1709251383.463,49.316,56.152,-235.352,21.973,46.875
1709251383.467,39.062,59.570,-332.031,8.301,19.043
1709251383.471,21.973,59.082,-465.820,-7.812,16.602
1709251383.474,31.250,53.223,-497.559,-2.930,44.922
1709251383.478,58.594,54.688,-531.738,29.785,46.875
1709251383.482,54.199,62.012,-358.398,53.223,18.066
1709251383.486,29.785,60.547,-264.160,38.086,24.902
1709251383.490,24.902,59.570,-395.996,9.766,16.602
1709251383.493,44.922,58.105,-261.230,21.973,43.945
1709251383.497,71.289,60.547,-166.992,37.598,63.477
1709251383.501,50.781,59.570,-346.680,36.621,21.484
1709251383.505,25.391,55.176,-526.855,35.645,-0.488
1709251383.509,53.711,58.105,-402.832,27.344,40.527
1709251383.513,65.430,56.641,-271.973,25.391,57.617
1709251383.517,36.133,55.176,-309.570,34.668,62.988
1709251383.520,25.879,60.059,-583.984,25.879,24.902
1709251383.524,32.715,51.758,-665.039,31.738,-3.906
1709251383.528,39.062,39.551,-152.832,59.082,70.312
1709251383.532,30.273,41.504,-133.789,59.570,69.824
1709251383.536,2.930,41.504,-383.789,33.203,18.555
1709251383.537,3.906,38.574,-381.836,25.391,-4.395
1709251383.541,29.785,41.992,-218.750,40.527,5.859
1709251383.545,48.340,45.898,-231.934,41.016,15.137
1709251383.549,38.086,44.434,-359.863,36.621,13.672
1709251383.553,-5.859,40.039,-396.973,28.809,14.160
1709251383.557,4.883,38.086,-342.773,34.668,27.344
1709251383.561,35.645,40.527,-306.152,54.199,55.664
1709251383.564,14.648,40.039,-579.590,39.062,10.742
1709251383.568,-3.906,31.250,-509.277,31.250,-7.812
1709251383.572,14.160,27.832,-172.852,57.617,17.090
1709251383.576,29.785,25.879,-239.258,57.617,9.277
1709251383.580,15.625,27.344,-417.969,37.598,-13.184
1709251383.582,12.207,23.926,-279.785,9.766,6.836
1709251383.586,41.992,14.160,-170.410,-1.465,29.785
1709251383.590,59.082,20.020,-143.555,22.949,43.457
1709251383.594,37.109,27.344,-131.836,23.926,60.059
1709251383.598,9.277,22.461,-228.516,25.879,30.762
1709251383.602,15.625,18.555,-398.438,36.133,2.930
1709251383.606,44.434,23.438,-532.715,33.691,17.090
1709251383.609,54.688,27.344,-541.504,27.344,43.457
1709251383.613,31.250,29.785,-416.016,20.508,37.598
1709251383.617,27.344,30.762,-354.492,12.207,49.316
1709251383.621,45.898,30.762,-356.934,27.832,65.430
1709251383.625,48.828,33.691,-292.969,54.688,43.945
1709251383.628,34.668,37.109,-299.316,33.203,20.020
1709251383.632,24.902,38.086,-471.680,17.578,6.836
1709251383.636,29.297,34.668,-460.449,18.555,22.461
1709251383.640,48.340,35.156,-295.898,2.441,29.785
1709251383.644,40.527,37.598,-244.629,-6.348,52.246
1709251383.648,20.508,40.527,-522.461,7.812,37.109
1709251383.652,20.996,39.551,-780.762,26.367,14.648
1709251383.655,49.316,33.691,-447.754,29.297,41.016
1709251383.659,57.129,33.691,-189.453,25.879,64.941
1709251383.663,37.598,33.203,-362.305,21.484,61.523
1709251383.667,26.855,30.273,-477.051,21.973,55.176
1709251383.671,40.039,25.391,-321.289,16.602,55.664
1709251383.687,42.480,24.902,-198.242,12.207,43.457
1709251383.691,11.230,28.809,-458.984,9.766,16.602
1709251383.695,5.371,30.273,-595.215,16.602,7.324
1709251383.699,34.180,27.344,-273.926,50.781,57.617
1709251383.703,37.598,23.926,-148.438,58.594,63.965
1709251383.707,3.906,24.902,-398.926,29.297,15.137
1709251383.711,-13.672,20.996,-546.875,36.621,18.555
1709251383.714,0.000,13.672,-325.684,65.430,48.340
1709251383.718,35.645,17.090,-156.738,41.504,28.809
1709251383.722,39.551,16.113,-437.500,-2.930,-1.465
1709251383.726,12.695,14.160,-522.461,-11.230,9.766
1709251383.730,26.367,21.973,-236.328,8.301,39.062
1709251383.733,36.133,20.996,-125.977,29.785,63.965
1709251383.737,21.973,21.484,-285.156,22.461,25.391
1709251383.741,9.766,22.949,-385.254,22.949,-12.207
1709251383.745,2.930,17.090,-263.672,33.203,9.766
1709251383.749,19.043,14.648,-254.883,50.293,8.301
1709251383.753,38.086,19.531,-419.434,32.227,-9.766
1709251383.757,28.809,19.531,-391.602,0.000,22.461
1709251383.760,19.043,15.137,-278.320,0.488,27.832
1709251383.764,51.270,14.160,-373.535,30.273,-6.348
1709251383.768,63.965,14.648,-479.492,44.434,17.578
1709251383.772,36.621,14.648,-341.309,21.973,25.391
1709251383.776,20.508,18.555,-294.434,13.672,12.695
1709251383.777,25.391,20.020,-316.406,38.574,29.785
1709251383.781,39.062,20.508,-218.750,62.988,33.203
1709251383.785,30.273,21.484,-183.105,47.852,20.020
1709251383.789,8.789,17.578,-276.367,19.531,19.043
1709251383.793,24.414,19.043,-342.773,9.766,37.598
1709251383.797,64.941,22.461,-291.016,27.832,60.059
1709251383.801,70.801,21.484,-315.918,33.691,28.809
1709251383.804,31.738,19.043,-310.059,26.855,39.062
1709251383.808,6.348,23.438,-549.805,42.969,12.695
1709251383.812,25.879,23.926,-664.062,46.387,-21.973
1709251383.816,36.621,20.996,-213.379,40.527,32.715
1709251383.820,27.832,15.625,-203.125,25.391,28.809
1709251383.823,23.926,17.090,-390.137,19.043,9.277
1709251383.827,32.227,23.438,-254.395,27.832,25.879
1709251383.831,49.805,23.438,-82.031,34.668,49.316
1709251383.835,44.922,27.344,-134.766,58.594,86.914
1709251383.839,8.789,32.227,-292.969,77.148,78.125
1709251383.843,-2.441,30.762,-369.629,104.492,28.809
1709251383.847,24.902,27.344,-245.117,73.242,62.500
1709251383.850,29.785,32.715,-307.129,-5.859,59.570
1709251383.854,22.949,40.527,-726.074,-35.156,12.207
1709251383.858,17.578,34.180,-607.910,-34.668,8.789
1709251383.862,34.668,27.832,-188.965,10.742,43.457
1709251383.866,42.969,31.250,-235.352,31.738,61.035
1709251383.867,19.043,32.715,-355.469,23.438,37.598
1709251383.871,10.742,32.227,-375.977,14.160,10.742
1709251383.875,37.598,29.297,-340.332,-3.906,0.488
1709251383.879,61.523,27.832,-340.820,10.742,7.324
1709251383.883,35.645,24.414,-387.207,13.672,26.367
1709251383.887,20.996,22.949,-530.273,10.742,15.137
1709251383.891,30.762,29.297,-606.934,25.391,-20.996
1709251383.894,30.762,35.156,-645.996,40.039,-5.371
1709251383.898,31.250,37.598,-624.512,32.715,28.320
1709251383.902,15.625,34.668,-419.434,15.625,32.227
1709251383.906,27.832,39.551,-489.746,28.320,22.949
1709251383.910,51.758,53.223,-492.188,56.641,32.715
1709251383.912,55.176,65.918,-341.309,43.457,39.062
1709251383.916,16.113,65.918,-309.570,15.625,42.480
1709251383.920,-2.441,67.871,-386.719,26.367,50.293
1709251383.924,31.250,72.754,-332.031,51.270,54.199
1709251383.928,34.668,68.848,-183.594,61.523,54.688
1709251383.932,22.461,68.848,-332.031,41.992,42.480
1709251383.936,19.531,65.430,-552.734,36.133,33.691
1709251383.939,18.066,60.059,-621.094,32.227,16.602
1709251383.943,19.531,52.734,-344.238,18.066,18.555
1709251383.947,19.043,48.828,-185.059,22.949,16.602
1709251383.951,13.672,50.781,-369.629,29.785,-7.324
1709251383.955,21.973,46.875,-287.109,43.457,18.066
1709251383.958,23.926,41.992,-85.449,56.641,31.250
1709251383.962,10.742,42.969,-166.016,42.480,16.602
1709251383.966,-9.277,48.340,-362.793,26.367,19.531
1709251383.970,-3.418,47.363,-315.430,41.992,18.555
1709251383.974,30.273,43.457,-45.898,61.035,36.621
1709251383.978,38.574,46.875,-82.031,65.918,40.039
1709251383.982,12.695,48.828,-508.301,31.250,-11.719
1709251383.985,-5.371,42.969,-593.750,4.395,-21.973
1709251383.989,12.695,36.621,-163.086,39.062,20.996
1709251383.993,30.273,37.598,-45.410,67.871,46.875
1709251383.997,12.695,37.598,-278.809,72.754,26.367
1709251384.001,4.883,37.109,-344.238,40.527,12.695
1709251384.002,36.133,38.086,-197.266,9.766,24.902
1709251384.006,65.430,38.086,-222.656,0.977,14.648
1709251384.010,54.199,39.551,-341.309,-7.324,23.926
1709251384.014,31.738,40.039,-374.512,4.883,33.203
1709251384.018,43.945,36.621,-420.898,28.809,17.090
1709251384.022,54.688,37.109,-452.148,52.246,23.438
1709251384.026,35.645,41.504,-718.262,40.527,23.926
1709251384.029,18.555,41.016,-747.070,0.488,-0.488
1709251384.033,23.926,37.109,-422.852,5.859,29.785
1709251384.037,37.598,33.691,-384.766,27.344,37.109
1709251384.041,37.598,39.062,-399.414,9.766,23.438
1709251384.045,18.555,45.410,-405.273,1.465,25.391
1709251384.062,10.254,44.922,-454.590,10.254,25.879
1709251384.066,24.414,45.410,-412.598,24.902,51.270
1709251384.070,41.504,41.016,-389.648,34.668,35.156
1709251384.074,19.531,35.156,-431.152,46.875,18.555
1709251384.078,3.906,34.668,-474.121,56.152,31.250
1709251384.082,19.043,40.527,-628.418,34.180,23.926
1709251384.086,22.949,46.387,-693.359,3.418,18.555
1709251384.089,12.695,42.969,-563.477,0.488,22.461
1709251384.093,7.324,37.598,-474.121,12.695,29.297
1709251384.097,17.578,42.480,-612.793,29.785,24.414
1709251384.101,30.273,42.480,-524.414,16.602,24.902
1709251384.105,30.273,37.598,-215.820,19.043,63.477
1709251384.107,16.113,37.109,-338.867,34.180,61.523
1709251384.111,19.043,35.645,-488.770,31.738,23.926
1709251384.115,17.578,34.180,-279.785,29.785,55.176
1709251384.119,13.184,31.250,-152.832,27.832,68.848
1709251384.123,8.789,31.250,-351.562,22.461,45.898
1709251384.127,14.160,35.645,-529.785,5.859,51.758
1709251384.131,35.156,35.645,-479.492,10.254,45.898
1709251384.134,46.387,31.738,-297.363,13.672,37.109
1709251384.138,30.762,25.879,-395.996,6.348,52.734
1709251384.142,16.113,33.203,-711.426,1.953,60.547
1709251384.146,28.320,38.086,-625.000,8.789,30.762
1709251384.150,44.434,34.180,-372.070,16.113,6.348
1709251384.152,35.645,39.062,-451.660,18.066,27.832
1709251384.156,22.949,41.992,-579.102,6.348,50.293
1709251384.160,32.715,41.016,-440.918,9.277,49.805
1709251384.164,45.898,36.621,-329.590,23.438,50.781
1709251384.168,44.922,46.875,-431.152,6.836,28.320
1709251384.172,31.738,57.129,-680.664,5.371,-3.418
1709251384.176,30.273,52.734,-702.148,-8.301,28.809
1709251384.179,41.016,43.945,-508.789,-25.879,41.504
1709251384.183,53.711,39.062,-635.742,4.883,20.996
1709251384.187,52.734,39.062,-775.391,1.953,21.973
1709251384.191,35.645,42.480,-505.371,-14.648,51.270
1709251384.195,36.621,44.434,-372.559,14.648,61.035
1709251384.198,48.828,45.410,-444.336,33.203,39.551
1709251384.202,40.527,46.875,-532.715,23.926,40.039
1709251384.206,19.531,41.016,-474.609,23.926,42.969
1709251384.210,26.855,39.551,-504.395,20.508,22.949
1709251384.214,41.504,41.016,-506.348,25.879,34.180
1709251384.218,37.598,44.922,-562.012,19.043,11.230
1709251384.222,19.531,44.922,-611.816,1.465,-2.441
1709251384.225,26.855,41.016,-595.703,15.137,15.625
1709251384.229,48.340,40.527,-659.668,32.227,38.086
1709251384.233,34.180,38.086,-484.375,23.438,35.156
1709251384.237,23.926,39.551,-402.832,9.766,28.809
1709251384.241,17.578,41.992,-522.461,-3.418,20.508
1709251384.242,30.762,40.527,-393.555,4.883,45.898
1709251384.246,52.246,36.621,-220.703,22.461,65.430
1709251384.250,41.016,33.691,-348.145,23.438,20.020
1709251384.254,26.855,41.504,-529.297,27.344,7.324
1709251384.258,32.227,46.875,-452.637,37.109,44.434
1709251384.262,46.387,40.039,-339.844,38.086,47.852
1709251384.266,20.020,38.574,-413.574,34.180,27.344
1709251384.269,-11.719,43.945,-680.176,27.832,-0.977
1709251384.273,12.207,39.551,-703.125,14.648,19.531
1709251384.277,28.809,33.203,-270.508,12.207,35.645
1709251384.281,32.227,38.086,-184.570,27.832,13.672
1709251384.285,19.043,39.551,-333.496,23.926,11.719
1709251384.287,4.395,35.645,-266.602,15.137,25.879
1709251384.291,38.574,33.691,-99.609,31.250,29.785
1709251384.295,40.527,34.180,-152.344,49.805,10.742
1709251384.299,19.043,36.133,-276.855,42.969,10.254
1709251384.303,7.324,34.180,-200.684,39.551,37.598
1709251384.307,12.695,28.320,-160.645,68.359,31.250
1709251384.311,26.367,29.297,-224.121,80.078,16.113
1709251384.314,11.230,35.645,-521.973,58.594,3.906
1709251384.318,-7.324,34.668,-470.215,24.414,-8.789
1709251384.322,5.859,31.250,-36.133,31.250,20.996
1709251384.326,21.484,32.227,9.766,44.434,15.625
1709251384.330,9.277,32.715,-11.230,30.762,24.414
1709251384.332,0.488,31.250,9.766,24.414,36.133
1709251384.336,21.484,31.738,0.977,41.992,12.207
1709251384.340,30.273,29.785,73.242,62.500,39.551
1709251384.344,18.066,18.066,125.000,49.805,63.965
1709251384.348,12.695,22.949,46.387,28.809,32.715
1709251384.352,0.000,32.227,-41.016,32.715,43.945
1709251384.356,5.371,31.738,-187.988,50.781,27.832
1709251384.359,20.508,28.320,-201.172,49.805,-0.977
1709251384.363,18.066,19.043,17.090,48.828,10.254
1709251384.367,24.902,25.391,-55.664,43.945,7.812
1709251384.371,51.270,29.297,-109.375,29.785,25.391
1709251384.375,40.527,24.902,55.176,31.250,32.715
1709251384.377,-3.906,24.902,99.121,21.484,31.738
1709251384.381,-10.254,22.461,-74.219,11.719,17.578
1709251384.385,20.020,24.414,-156.250,3.418,4.883
1709251384.389,37.598,29.297,58.594,14.160,58.594
1709251384.393,41.016,27.832,51.270,27.832,38.574
1709251384.397,33.203,28.320,-307.129,15.625,-19.043
1709251384.401,22.461,28.809,-567.871,21.973,-25.391
1709251384.404,34.668,23.438,-236.328,42.480,15.625
1709251384.408,34.180,21.973,-19.531,35.156,9.277
1709251384.412,5.859,24.414,-202.637,21.973,1.953
1709251384.416,-1.465,18.066,-187.988,31.738,44.922
1709251384.420,25.879,15.625,-18.555,39.062,38.574
1709251384.423,36.621,23.438,-28.320,32.715,27.344
1709251384.427,27.832,26.367,-273.926,18.555,25.879
1709251384.431,19.531,24.414,-318.359,13.672,11.719
1709251384.435,26.367,19.531,-71.777,35.156,20.020
1709251384.439,39.551,15.137,42.969,41.016,38.086
1709251384.443,31.250,16.602,-158.691,32.715,30.762
1709251384.447,14.648,23.438,-306.152,37.109,38.086
1709251384.450,10.254,23.926,-136.719,44.434,36.621
1709251384.454,32.227,22.461,-6.348,48.340,10.254
1709251384.458,35.645,24.414,-239.258,37.109,23.926
1709251384.462,15.625,23.438,-365.723,30.273,24.414
1709251384.466,26.367,19.043,-186.523,11.230,-2.930
1709251384.482,56.152,20.996,-81.055,10.254,33.691
1709251384.486,59.082,24.414,-119.141,30.273,44.434
1709251384.490,30.762,24.902,-218.262,14.160,13.672
1709251384.494,23.926,26.855,-272.461,10.742,29.297
1709251384.498,45.410,28.320,-332.520,21.484,27.832
1709251384.502,51.758,26.855,-464.355,22.949,1.465
1709251384.506,36.621,24.414,-496.582,26.367,-9.277
1709251384.509,18.555,19.043,-274.902,21.484,35.645
1709251384.513,36.621,15.137,-243.164,18.555,53.223
1709251384.517,52.734,24.414,-328.613,27.832,25.391
1709251384.521,26.855,35.645,-221.191,28.320,4.395
1709251384.525,1.465,35.645,-247.070,17.090,-0.977
1709251384.527,21.973,28.320,-323.242,6.348,-4.395
1709251384.531,40.527,24.902,-222.656,12.695,6.348
1709251384.535,30.762,27.832,-153.320,24.902,6.348
1709251384.539,12.207,27.832,-226.562,25.879,12.207
1709251384.543,14.648,25.879,-290.039,31.250,17.578
1709251384.547,49.805,26.367,-269.043,43.457,27.832
1709251384.551,51.270,25.879,-197.754,35.156,65.430
1709251384.554,16.602,25.879,-285.156,27.344,30.762
1709251384.558,1.953,26.855,-568.848,36.133,-17.090
1709251384.562,10.254,26.367,-557.617,55.176,-6.348
1709251384.566,19.043,28.320,-95.703,55.176,36.133
1709251384.570,21.484,29.785,-33.203,31.738,50.781
1709251384.572,8.789,29.785,-281.738,21.484,-7.324
1709251384.576,4.395,29.785,-209.473,35.156,-26.855
1709251384.580,21.973,29.785,24.902,41.992,22.949
1709251384.584,27.832,33.203,-70.801,46.387,28.320
1709251384.588,10.254,33.203,-291.016,28.809,-5.859
1709251384.592,17.090,29.785,-257.324,28.320,20.996
1709251384.596,45.410,32.227,-105.469,24.902,65.918
1709251384.599,38.574,36.133,-221.191,12.695,31.738
1709251384.603,11.719,30.762,-506.836,21.484,3.418
1709251384.607,0.000,28.320,-412.109,6.348,14.648
1709251384.611,22.949,34.180,-77.148,24.414,28.320
1709251384.615,34.180,37.109,-125.000,40.527,15.625
1709251384.617,10.254,38.086,-296.875,26.855,-1.465
1709251384.621,-17.090,37.598,-173.340,30.273,8.301
1709251384.625,-8.789,37.109,-18.555,39.551,35.156
1709251384.629,16.602,34.668,46.387,42.969,60.547
1709251384.633,-0.977,30.273,-45.410,42.480,46.387
1709251384.637,-39.551,30.762,-206.543,36.621,34.668
1709251384.641,-33.691,32.227,-212.891,40.527,39.551
1709251384.644,-5.859,34.180,-321.777,62.012,7.812
1709251384.648,-19.531,31.250,-375.977,53.223,1.953
1709251384.652,-28.809,29.297,-189.941,38.574,11.230
1709251384.656,-20.508,30.762,-138.672,51.270,28.320
1709251384.660,-24.902,35.156,-95.703,43.457,34.180
1709251384.663,-23.438,44.434,-113.770,22.461,32.227
1709251384.667,-22.949,45.410,-164.551,0.488,20.508
1709251384.671,-17.578,41.016,-245.605,3.906,8.789
1709251384.675,0.000,37.109,-248.535,38.574,23.438
1709251384.679,15.625,34.180,-68.848,53.711,40.527
1709251384.683,4.395,35.645,-108.887,27.832,74.219
1709251384.687,0.000,36.133,-353.027,19.043,58.105
1709251384.690,35.645,27.832,-488.281,30.273,16.602
1709251384.694,53.223,22.461,-284.180,23.926,0.488
1709251384.698,28.320,29.785,-159.180,20.020,5.859
1709251384.702,-0.977,32.715,-396.973,15.137,-12.207
1709251384.706,8.789,29.297,-435.547,37.109,-7.324
1709251384.707,48.828,28.809,-165.527,58.105,57.129
1709251384.711,56.641,30.762,-153.809,46.387,65.918
1709251384.715,42.480,29.297,-417.480,21.973,31.738
1709251384.719,42.969,25.391,-550.781,-4.883,14.648
1709251384.723,61.523,28.320,-350.098,11.719,42.480
1709251384.727,65.918,28.809,-360.840,18.555,31.738
1709251384.731,33.203,29.297,-727.051,1.465,5.859
1709251384.734,16.113,36.133,-815.918,18.555,43.457
1709251384.738,50.781,28.809,-393.555,46.387,52.734
1709251384.742,69.824,24.414,-211.914,27.832,25.391
1709251384.746,52.734,26.367,-433.105,-1.465,-16.602
1709251384.750,34.668,26.367,-464.355,4.395,-4.395
1709251384.752,43.945,27.832,-289.062,27.344,26.367
1709251384.756,59.570,29.785,-254.395,43.457,18.555
1709251384.760,38.086,33.691,-317.383,37.109,41.992
1709251384.764,25.879,33.691,-341.797,31.738,42.969
1709251384.768,54.199,28.809,-320.801,39.062,13.184
1709251384.772,80.078,29.297,-308.105,40.527,38.574
1709251384.776,72.266,32.227,-625.000,36.621,32.227
1709251384.779,36.133,27.344,-692.871,26.855,-24.414
1709251384.783,25.391,21.973,-335.938,32.715,0.977
1709251384.787,41.992,19.043,-170.898,37.598,61.523
1709251384.791,55.664,19.043,-148.926,35.645,67.383
1709251384.795,39.062,23.438,-168.945,34.668,55.664
1709251384.812,17.578,25.879,-212.891,41.504,47.363
1709251384.816,28.320,25.391,-195.801,46.875,51.758
1709251384.820,44.922,25.391,-159.180,27.344,50.781
1709251384.824,32.227,24.414,-204.590,34.180,35.156
1709251384.828,20.020,24.902,-319.336,59.570,11.719
1709251384.832,44.922,27.344,-373.047,44.434,33.203
1709251384.836,71.289,27.344,-342.773,21.973,58.105
1709251384.839,62.012,28.320,-293.945,18.555,30.762
1709251384.843,28.809,30.762,-333.984,15.137,9.277
1709251384.847,24.902,28.809,-629.395,29.785,-2.930
1709251384.851,43.945,28.320,-632.812,64.453,-10.742
1709251384.855,39.551,28.809,-208.008,89.844,40.039
1709251384.858,26.367,25.879,-244.141,75.195,52.246
1709251384.862,34.668,26.855,-418.457,59.082,15.625
1709251384.866,39.062,30.762,-236.328,20.508,43.945
1709251384.870,39.062,37.598,-154.785,-22.949,37.598
1709251384.874,22.949,38.086,-377.930,-16.602,-0.977
1709251384.878,1.953,35.156,-562.988,0.488,12.695
1709251384.882,37.598,31.738,-495.117,19.531,22.949
1709251384.885,60.547,26.855,-263.672,23.438,37.109
1709251384.889,24.902,30.273,-361.816,-0.488,24.902
1709251384.893,5.371,32.227,-723.145,-17.578,-9.766
1709251384.897,13.184,27.344,-445.801,-5.371,38.086
1709251384.901,36.133,30.273,-183.594,14.648,26.367
1709251384.902,48.340,34.668,-437.988,9.766,-3.906
1709251384.906,24.902,30.762,-572.266,-0.488,-20.020
1709251384.910,10.742,26.367,-356.445,-1.953,-1.953
1709251384.914,24.902,27.344,-161.621,14.648,39.551
1709251384.918,38.574,29.785,-218.262,23.926,24.414
1709251384.922,28.809,36.133,-407.715,2.930,4.883
1709251384.926,14.648,33.203,-419.922,6.348,23.926
1709251384.929,27.344,27.344,-282.715,33.691,29.785
1709251384.933,47.363,29.297,-405.762,41.016,10.254
1709251384.937,22.461,26.855,-486.328,25.879,16.602
1709251384.941,3.906,24.414,-201.172,13.184,56.641
1709251384.945,37.109,30.762,-129.395,34.180,42.969
1709251384.947,43.945,25.391,-156.738,52.246,26.855
1709251384.951,11.719,22.949,-128.418,20.508,38.086
1709251384.955,7.324,32.715,-242.188,-1.465,23.926
1709251384.959,30.273,33.203,-312.988,34.668,50.293
1709251384.963,45.410,32.715,-235.352,77.637,61.035
1709251384.967,33.203,33.203,-270.508,86.914,29.297
1709251384.971,-0.488,25.879,-357.910,68.359,31.738
1709251384.974,11.719,27.832,-369.141,35.156,55.176
1709251384.978,38.574,32.715,-425.293,-11.719,68.848
1709251384.982,29.785,31.738,-271.484,-20.996,55.176
1709251384.986,16.602,30.273,-211.426,8.789,27.832
1709251384.990,29.785,30.762,-415.039,13.672,-14.160
1709251384.992,51.758,32.227,-360.840,29.297,-16.602
1709251384.996,48.340,28.809,-136.719,24.902,35.645
1709251385.000,39.551,33.203,-223.633,14.160,19.531
1709251385.004,33.203,38.086,-408.203,29.785,0.488
1709251385.008,40.039,31.250,-300.781,26.367,42.969
1709251385.012,51.758,26.367,-267.578,31.250,37.109
1709251385.016,41.504,38.086,-413.086,18.555,14.160
1709251385.019,24.902,46.387,-675.781,1.953,7.324
1709251385.023,27.832,41.504,-768.555,9.766,-9.277
1709251385.027,31.250,35.156,-293.457,18.066,43.457
1709251385.031,20.996,37.598,-125.000,14.160,79.102
1709251385.035,15.625,39.551,-342.285,13.184,40.039
1709251385.037,25.391,38.086,-315.918,15.137,43.945
1709251385.041,52.734,36.621,-116.211,33.203,72.266
1709251385.045,68.359,38.086,-168.457,53.711,49.805
1709251385.049,41.016,41.992,-383.789,49.805,4.395
1709251385.053,14.160,42.480,-377.930,31.250,6.348
1709251385.057,43.457,40.039,-294.922,36.621,39.551
1709251385.061,52.246,39.551,-338.379,47.363,39.062
1709251385.064,20.020,35.645,-497.559,40.527,59.570
1709251385.068,7.324,28.320,-454.590,57.129,66.406
1709251385.072,35.156,34.180,-233.398,69.824,28.809
1709251385.076,61.035,37.598,-242.188,31.250,16.602
1709251385.080,45.410,39.062,-382.324,2.441,-2.441
1709251385.082,31.738,40.527,-292.480,3.418,6.348
1709251385.086,52.246,35.156,-206.543,20.508,33.691
1709251385.090,72.754,33.691,-184.082,29.785,35.156
1709251385.094,45.898,34.668,-161.621,32.227,47.852
1709251385.098,12.207,35.645,-216.309,25.391,30.273
1709251385.102,27.832,38.086,-415.527,-1.465,10.742
1709251385.106,41.992,35.156,-456.055,11.230,5.859
1709251385.109,39.062,35.156,-301.758,26.855,-4.395
1709251385.113,34.668,39.551,-252.930,14.160,5.371
1709251385.117,25.391,40.039,-316.895,19.531,7.324
1709251385.121,41.504,36.621,-319.824,56.641,16.602
1709251385.125,54.199,34.180,-287.109,40.039,43.945
1709251385.128,34.668,36.621,-293.457,6.348,37.598
1709251385.132,11.719,37.109,-291.016,19.531,25.879
1709251385.136,14.160,35.645,-563.477,36.133,-1.465
1709251385.140,55.176,35.645,-496.094,47.852,2.930
1709251385.144,53.223,37.109,-155.762,44.434,26.367
1709251385.148,22.949,41.016,-364.746,13.672,14.160
1709251385.152,35.156,40.527,-615.234,14.648,19.043
1709251385.155,53.223,34.180,-303.223,27.344,51.270
1709251385.159,55.664,36.133,-11.230,14.160,85.449
1709251385.163,23.926,41.504,-255.371,22.949,42.480
1709251385.167,10.742,39.062,-367.676,24.414,15.137
1709251385.171,36.621,36.133,-177.734,48.828,34.668
1709251385.188,46.875,29.297,-91.309,66.406,51.270
1709251385.192,36.621,39.062,-250.977,14.160,33.691
1709251385.196,28.320,45.410,-414.551,-16.113,35.156
1709251385.200,15.137,37.109,-302.734,7.812,67.871
1709251385.204,18.555,39.062,-131.836,26.367,33.203
1709251385.208,23.438,45.410,-418.945,32.715,6.836
1709251385.212,7.812,49.316,-721.191,28.809,20.508
1709251385.215,10.742,44.434,-371.094,20.508,39.062
1709251385.219,22.461,42.480,-122.070,27.832,39.551
