timestamps,TP9,AF7,AF8,TP10,Right AUX
1701222357.939,47.852,-942.383,47.852,7.812,-42.969
1701222357.943,-1.953,-925.781,47.363,27.832,-68.848
1701222357.947,-12.207,-595.703,48.340,73.242,36.133
1701222357.951,54.688,-562.500,51.270,52.734,62.500
1701222357.955,88.867,-890.625,52.246,4.883,-12.207
1701222357.959,30.762,-944.824,48.340,4.883,-22.461
1701222357.963,-14.160,-732.910,45.898,49.805,41.992
1701222357.966,30.762,-670.898,46.387,56.152,78.613
1701222357.970,91.309,-876.953,47.852,16.602,13.184
1701222357.974,54.199,-917.969,45.410,17.578,-26.855
1701222357.978,-3.418,-611.328,41.992,44.922,45.898
1701222357.982,16.602,-490.723,42.480,57.617,71.289
1701222358.011,57.617,-777.832,43.945,31.250,21.973
1701222358.015,48.340,-1000.000,43.457,8.789,-45.410
1701222358.019,0.488,-779.785,40.039,30.273,-5.859
1701222358.023,-5.371,-481.934,39.062,61.523,92.773
1701222358.027,53.223,-747.070,43.457,43.457,43.945
1701222358.031,81.055,-1000.000,45.410,-8.301,-76.660
1701222358.035,14.648,-857.422,39.551,3.418,-34.668
1701222358.038,-11.719,-601.074,37.598,43.945,48.340
1701222358.042,44.434,-794.434,38.574,30.273,50.293
1701222358.046,60.547,-1000.000,39.551,-16.113,-17.090
1701222358.050,7.324,-863.281,42.969,-0.488,-18.555
1701222358.054,-22.949,-725.586,42.480,56.152,46.875
1701222358.040,31.250,-740.723,42.480,58.105,62.012
1701222358.044,93.750,-843.750,43.457,9.277,10.254
1701222358.048,60.059,-953.613,44.434,8.789,-43.945
1701222358.052,-1.465,-790.527,47.852,63.477,3.418
1701222358.056,22.461,-598.145,50.781,61.035,80.078
1701222358.060,69.824,-784.180,47.852,10.254,38.086
1701222358.064,44.922,-1000.000,42.480,-12.207,-23.438
1701222358.067,-22.949,-895.508,41.992,20.508,13.672
1701222358.071,-18.555,-585.449,41.992,51.758,89.844
1701222358.075,58.594,-637.695,42.480,30.762,64.941
1701222358.079,58.594,-930.664,42.480,-0.488,-15.137
1701222358.083,-8.789,-998.047,39.551,13.184,-57.617
1701222358.102,-31.738,-886.230,37.598,45.410,-9.277
1701222358.106,22.461,-671.387,40.039,41.504,64.941
1701222358.110,63.965,-832.520,43.457,0.000,18.555
1701222358.114,24.902,-935.059,42.480,7.324,-18.555
1701222358.118,-14.160,-615.234,44.434,52.734,44.434
1701222358.122,35.645,-625.977,40.527,65.430,71.777
1701222358.126,89.355,-912.598,43.457,37.598,8.301
1701222358.129,40.039,-1000.000,53.711,6.348,-71.777
1701222358.133,-5.371,-791.016,53.711,45.410,-21.484
1701222358.137,-5.859,-456.543,53.711,68.848,86.426
1701222358.141,14.648,-687.500,57.129,26.367,52.246
1701222358.145,18.066,-1000.000,59.082,0.977,-23.926
1701222358.236,-34.668,-880.371,58.105,11.719,-20.508
1701222358.240,-54.199,-531.250,53.711,47.363,64.453
1701222358.244,10.742,-645.508,55.176,38.086,93.750
1701222358.248,45.410,-1000.000,58.594,-12.207,0.488
1701222358.252,-18.555,-919.434,56.152,-6.836,-25.391
1701222358.256,-45.410,-752.930,54.199,49.316,41.016
1701222358.260,5.859,-834.473,54.199,50.293,48.340
1701222358.263,45.898,-979.980,52.734,0.000,-19.043
1701222358.267,28.809,-985.352,50.781,-7.324,-49.316
1701222358.271,-21.484,-703.613,49.316,35.156,13.672
1701222358.275,-9.766,-682.617,48.340,41.992,70.312
1701222358.279,43.945,-989.746,49.805,3.906,9.766
1701222358.240,49.316,-957.520,45.410,-13.184,-27.344
1701222358.244,4.395,-758.301,42.480,20.996,4.395
1701222358.248,-12.695,-687.988,44.434,47.363,24.902
1701222358.252,22.461,-814.453,43.457,10.254,12.695
1701222358.256,41.016,-938.477,42.969,-20.508,-31.250
1701222358.260,-7.324,-960.449,44.922,20.020,-17.578
1701222358.264,-41.016,-868.164,44.922,69.824,47.852
1701222358.267,20.996,-814.941,44.434,38.574,29.785
1701222358.271,64.941,-864.746,42.480,-12.695,-6.836
1701222358.275,8.301,-958.984,43.457,3.418,-40.039
1701222358.279,-26.855,-820.801,41.504,48.828,-14.648
1701222358.283,15.625,-577.637,38.574,52.734,66.406
1701222358.267,71.289,-755.859,41.992,19.531,39.551
1701222358.271,31.250,-1000.000,42.480,19.531,-26.855
1701222358.275,-36.133,-793.457,42.969,50.293,24.414
1701222358.279,-6.836,-508.301,41.992,67.383,89.844
1701222358.283,64.453,-768.066,44.922,33.691,30.762
1701222358.287,58.105,-1000.000,49.316,10.254,-58.105
1701222358.291,-2.441,-903.320,46.875,45.410,-46.387
1701222358.294,-15.625,-687.988,43.457,75.195,60.059
1701222358.298,40.039,-798.828,45.410,52.246,53.711
1701222358.302,61.523,-995.117,47.852,12.207,-53.223
1701222358.306,5.371,-939.453,47.852,28.809,-57.617
1701222358.310,1.465,-754.883,47.852,79.102,17.090
1701222358.271,47.363,-763.184,44.434,64.941,36.621
1701222358.275,54.688,-964.844,45.898,14.160,-27.832
1701222358.279,12.207,-956.543,45.898,21.484,-64.453
1701222358.283,-25.391,-721.191,38.574,60.547,11.230
1701222358.287,19.531,-639.648,37.598,71.289,59.082
1701222358.291,58.594,-878.418,41.504,29.785,16.602
1701222358.295,43.457,-1000.000,41.992,18.555,-58.594
1701222358.298,-4.883,-838.379,40.527,45.410,-37.598
1701222358.302,11.719,-685.547,37.598,63.965,29.297
1701222358.306,76.172,-880.371,38.574,31.250,-14.160
1701222358.310,53.223,-1000.000,40.039,0.977,-109.375
1701222358.314,-0.977,-835.449,35.156,31.738,-41.504
1701222358.342,-6.836,-590.820,30.762,61.523,75.195
1701222358.346,44.922,-724.121,31.738,36.133,65.430
1701222358.350,59.082,-973.633,30.273,-9.277,-22.949
1701222358.354,3.418,-850.098,28.320,18.066,-12.207
1701222358.358,-20.020,-669.922,30.762,63.965,48.828
1701222358.362,40.527,-903.809,35.156,52.734,19.043
1701222358.366,75.195,-1000.000,32.227,10.742,-56.152
1701222358.369,48.828,-811.523,24.902,22.949,-62.500
1701222358.373,16.113,-592.285,27.832,76.660,24.414
1701222358.377,29.785,-513.672,36.133,65.918,65.918
1701222358.381,68.848,-640.625,39.062,12.695,6.348
1701222358.385,50.293,-869.141,38.086,-1.465,-68.848
1701222358.401,-14.160,-677.246,38.574,32.227,-7.324
1701222358.405,-10.254,-377.930,40.039,70.801,83.496
1701222358.409,56.641,-628.906,41.992,45.898,30.762
1701222358.413,48.828,-1000.000,45.898,-5.859,-57.129
1701222358.417,-9.766,-887.207,41.992,11.230,-32.715
1701222358.421,-10.742,-636.719,37.109,49.805,40.527
1701222358.425,43.457,-691.895,41.016,35.645,54.688
1701222358.428,70.312,-960.449,36.621,-20.508,-16.113
1701222358.432,18.066,-889.160,30.273,-16.113,-23.926
1701222358.436,-20.508,-536.621,31.738,37.109,40.039
1701222358.440,17.578,-460.449,34.180,31.738,73.242
1701222358.444,53.711,-759.277,37.109,-9.277,25.391
1701222358.448,13.672,-1000.000,38.574,-18.066,-75.195
1701222358.452,-20.020,-756.836,32.715,26.855,0.000
1701222358.456,24.902,-427.734,28.320,44.434,97.168
1701222358.460,64.941,-738.770,33.691,15.625,13.672
1701222358.464,61.523,-1000.000,36.133,-7.324,-65.918
1701222358.468,-2.441,-849.121,36.621,33.203,2.441
1701222358.472,-17.090,-627.930,39.551,70.801,93.262
1701222358.475,50.293,-789.551,38.574,35.156,38.086
1701222358.479,55.176,-1000.000,40.039,-2.930,-60.547
1701222358.483,5.859,-831.543,42.480,18.555,-22.461
1701222358.487,-3.418,-555.664,42.480,62.988,43.457
1701222358.491,49.316,-761.719,43.945,54.199,28.809
1701222358.460,69.336,-1000.000,43.945,11.719,-22.461
1701222358.464,24.414,-891.602,36.621,-0.488,-25.879
1701222358.468,-11.230,-563.965,28.809,42.969,60.059
1701222358.472,18.066,-711.426,31.250,45.898,65.918
1701222358.476,62.988,-1000.000,35.156,-0.977,-30.762
1701222358.480,28.809,-976.562,33.203,-5.859,-82.031
1701222358.484,-29.785,-898.438,29.785,25.391,-14.160
1701222358.487,7.324,-891.113,26.855,36.621,33.691
1701222358.491,70.801,-982.422,26.367,6.348,-31.738
1701222358.495,52.246,-967.773,28.809,-4.883,-43.945
1701222358.499,-3.906,-937.988,29.785,20.508,16.113
1701222358.503,6.348,-877.441,32.227,61.035,52.246
1701222358.521,65.918,-895.996,36.133,52.246,34.180
1701222358.525,67.383,-976.562,35.156,4.395,-54.688
1701222358.529,12.695,-971.680,32.715,21.973,-42.480
1701222358.533,-23.438,-969.238,33.203,61.523,26.367
1701222358.537,34.668,-973.145,35.645,40.527,-1.465
1701222358.541,76.172,-955.566,36.621,1.465,-41.992
1701222358.545,14.648,-1000.000,35.156,9.277,-56.152
1701222358.548,-22.461,-853.027,32.715,47.852,-7.324
1701222358.552,17.578,-527.832,26.367,56.152,85.938
1701222358.556,67.871,-676.270,28.809,13.672,63.477
1701222358.560,47.363,-917.480,31.738,-3.418,-3.418
1701222358.564,2.441,-736.328,31.738,31.738,36.621
1701222358.552,33.203,-562.988,31.250,50.293,83.984
1701222358.556,86.426,-698.730,30.273,27.344,48.340
1701222358.560,62.012,-972.168,30.762,5.859,-23.926
1701222358.564,6.836,-810.547,26.367,29.785,-1.953
1701222358.568,13.672,-450.684,25.391,57.617,96.191
1701222358.572,65.430,-734.375,29.785,47.363,46.387
1701222358.576,77.148,-1000.000,33.203,8.301,-32.715
1701222358.579,11.719,-859.863,32.227,21.973,-11.230
1701222358.583,-12.695,-519.531,29.297,62.500,66.895
1701222358.587,32.715,-581.543,29.785,54.688,81.543
1701222358.591,68.359,-954.102,36.133,13.672,-20.996
1701222358.595,27.344,-977.539,34.668,5.371,-75.684
1701222358.640,-13.672,-621.582,27.832,49.316,28.809
1701222358.644,28.809,-586.426,29.297,62.500,77.148
1701222358.648,64.453,-949.707,31.250,25.391,-23.926
1701222358.652,38.086,-978.516,31.738,11.719,-53.223
1701222358.656,8.301,-752.930,32.715,43.457,15.625
1701222358.660,22.949,-765.625,34.180,68.848,59.082
1701222358.664,62.988,-971.191,36.133,41.504,8.301
1701222358.667,65.430,-994.141,33.691,0.488,-62.988
1701222358.671,-0.488,-837.402,31.738,30.273,-5.859
1701222358.675,0.977,-619.141,29.785,69.824,73.242
1701222358.679,66.895,-729.004,29.297,51.758,63.965
1701222358.683,65.430,-947.266,32.227,8.301,-6.348
1701222358.645,9.277,-950.195,31.250,6.836,-23.438
1701222358.649,-5.859,-779.297,25.879,59.082,34.668
1701222358.653,46.387,-732.422,26.367,64.941,71.289
1701222358.657,76.172,-903.809,32.227,16.602,8.789
1701222358.661,32.227,-987.793,37.109,10.742,-63.477
1701222358.665,-6.348,-950.684,35.645,50.781,-12.695
1701222358.669,18.066,-937.012,32.715,68.359,45.898
1701222358.672,76.172,-955.078,37.109,28.320,12.695
1701222358.676,41.992,-997.070,39.062,1.465,-65.430
1701222358.680,-25.879,-881.348,36.133,35.645,-24.902
1701222358.684,-2.441,-647.949,33.691,60.059,92.773
1701222358.688,59.082,-810.547,34.180,28.320,51.758
1701222358.730,63.965,-1000.000,36.621,-6.836,-62.988
1701222358.734,6.348,-912.109,37.109,26.367,-35.156
1701222358.738,-20.996,-736.816,35.645,64.453,59.570
1701222358.742,35.645,-815.430,37.598,42.969,56.641
1701222358.746,63.965,-972.168,39.062,7.324,-10.254
1701222358.750,2.930,-979.004,39.551,10.742,-70.312
1701222358.754,-39.551,-951.660,34.668,52.246,-20.996
1701222358.757,22.461,-866.699,32.227,51.758,48.340
1701222358.761,85.938,-922.363,34.180,1.953,-5.859
1701222358.765,38.574,-1000.000,35.645,-14.160,-56.152
1701222358.769,-22.949,-777.832,32.715,41.504,43.945
1701222358.773,4.395,-569.336,29.297,65.918,123.047
1701222358.749,60.059,-847.168,32.227,17.578,57.617
1701222358.753,72.266,-1000.000,33.203,-6.836,-30.273
1701222358.757,22.461,-868.652,32.715,28.809,-0.977
1701222358.761,4.395,-670.410,32.227,62.500,85.449
1701222358.765,54.688,-848.633,34.180,37.598,63.965
1701222358.769,65.430,-1000.000,36.621,-10.742,-7.324
1701222358.773,6.836,-952.637,37.598,-0.488,-4.395
1701222358.776,-16.602,-805.176,37.109,45.898,71.289
1701222358.780,14.648,-876.953,39.551,37.598,60.547
1701222358.784,56.641,-1000.000,40.527,5.859,-24.902
1701222358.788,23.926,-938.965,39.062,2.441,-15.625
1701222358.792,-39.062,-922.852,37.109,34.668,47.852
1701222358.806,5.371,-931.641,36.621,45.898,66.895
1701222358.810,69.336,-950.684,36.621,0.488,-2.441
1701222358.814,47.852,-973.633,35.156,-16.113,-52.734
1701222358.818,-26.367,-967.285,32.227,24.414,5.859
1701222358.822,-9.766,-931.641,29.785,50.293,49.316
1701222358.826,53.223,-939.941,30.762,26.855,34.180
1701222358.830,36.621,-977.539,30.762,-9.766,-16.113
1701222358.833,-23.926,-969.238,30.762,3.906,-6.348
1701222358.837,-35.156,-972.656,32.227,45.898,35.156
1701222358.841,26.367,-965.820,31.738,16.113,13.184
1701222358.845,52.246,-966.797,31.738,-24.414,-24.414
1701222358.849,8.789,-987.305,33.203,17.090,-13.672
1701222358.835,-23.926,-714.844,30.273,51.270,56.152
1701222358.839,22.949,-580.078,28.320,27.344,103.516
1701222358.843,64.453,-895.996,30.273,-11.719,25.879
1701222358.847,19.531,-1000.000,25.879,-20.996,-62.500
1701222358.851,-0.488,-740.234,21.973,37.109,2.930
1701222358.855,12.695,-710.449,22.461,53.223,74.707
1701222358.859,6.836,-958.008,20.020,-20.508,13.672
1701222358.862,3.906,-988.281,17.090,-44.922,-44.434
1701222358.866,-21.973,-816.895,13.184,0.000,-0.977
1701222358.870,-21.973,-612.793,12.695,30.273,63.477
1701222358.874,34.180,-790.527,11.719,-2.441,19.043
1701222358.878,46.387,-1000.000,7.324,-36.133,-61.523
1701222358.896,-16.113,-892.578,5.371,-13.184,-28.809
1701222358.900,-39.551,-567.383,8.301,30.762,63.477
1701222358.904,38.574,-677.734,13.672,20.996,63.477
1701222358.908,68.848,-1000.000,17.578,-8.789,-19.531
1701222358.912,-8.789,-893.555,17.578,-0.488,1.465
1701222358.916,-28.320,-671.875,19.531,35.156,89.844
1701222358.920,18.066,-788.086,24.902,57.129,84.961
1701222358.923,56.641,-1000.000,28.320,18.066,-39.062
1701222358.927,25.879,-908.691,26.855,-2.441,-25.879
1701222358.931,-18.066,-603.516,21.484,38.574,88.867
1701222358.935,27.344,-574.707,21.484,62.012,99.121
1701222358.939,86.914,-814.453,27.344,20.508,52.734
1701222358.941,67.383,-976.074,25.391,2.930,-12.695
1701222358.945,-0.488,-836.914,21.484,47.852,0.488
1701222358.949,3.906,-616.211,20.508,72.266,83.984
1701222358.953,79.590,-756.348,22.461,50.293,68.848
1701222358.957,86.426,-952.148,23.926,33.203,-23.438
1701222358.961,13.672,-985.352,23.926,41.016,-30.273
1701222358.965,-6.348,-805.176,21.973,79.590,61.523
1701222358.968,49.805,-687.500,24.902,68.848,80.078
1701222358.972,88.379,-921.875,26.855,41.016,13.184
1701222358.976,36.133,-971.680,24.902,38.086,-8.301
1701222358.980,-18.555,-973.633,25.391,65.430,10.254
1701222358.984,47.852,-873.535,23.438,75.684,43.945
1701222358.972,100.586,-800.781,23.438,28.809,39.062
1701222358.976,58.105,-983.398,26.855,17.090,-17.578
1701222358.980,6.348,-817.383,26.855,71.777,2.441
1701222358.984,0.000,-541.992,26.855,84.473,59.570
1701222358.988,61.523,-760.254,27.344,31.250,22.949
1701222358.992,65.430,-1000.000,21.973,12.695,-68.848
1701222358.996,19.043,-896.973,18.066,57.617,-67.383
1701222358.999,19.043,-595.215,26.855,79.590,37.598
1701222359.003,46.875,-676.270,28.320,29.785,43.457
1701222359.007,56.152,-968.750,26.367,0.000,-50.781
1701222359.011,-7.812,-919.922,31.738,26.855,-56.152
1701222359.015,-31.738,-732.422,32.227,48.340,31.738
1701222359.032,42.969,-732.422,33.691,34.180,49.805
1701222359.036,78.613,-920.898,39.551,11.719,-21.484
1701222359.040,14.648,-993.164,45.898,19.043,-58.594
1701222359.044,-34.180,-755.371,40.527,54.688,27.344
1701222359.048,2.930,-697.266,40.527,56.152,62.012
1701222359.052,51.758,-934.082,45.410,32.715,-6.348
1701222359.056,40.039,-1000.000,42.480,22.461,-46.875
1701222359.059,-13.184,-807.129,41.992,48.340,24.414
1701222359.063,-19.531,-697.266,41.016,71.777,75.684
1701222359.067,44.922,-941.406,40.527,37.109,1.953
1701222359.071,62.988,-998.047,39.062,7.812,-45.898
1701222359.075,14.648,-912.598,35.645,36.133,-20.996
1701222359.092,-12.695,-866.699,34.180,60.547,1.953
1701222359.096,35.645,-954.590,36.133,45.898,10.742
1701222359.100,97.168,-991.211,35.645,19.531,-38.574
1701222359.104,39.551,-934.082,31.250,20.020,-46.875
1701222359.108,-41.504,-874.512,28.809,72.266,25.391
1701222359.112,27.832,-947.754,29.785,74.219,69.336
1701222359.116,81.055,-983.887,32.715,16.602,3.418
1701222359.119,31.250,-945.801,27.344,26.855,-49.805
1701222359.123,-14.160,-917.969,25.879,67.871,3.906
1701222359.127,6.348,-969.727,29.785,73.730,-0.977
1701222359.131,70.312,-966.309,33.691,40.527,-22.949
1701222359.135,59.082,-982.910,30.762,6.836,-27.832
1701222359.166,-4.395,-893.066,27.832,43.945,15.625
1701222359.170,4.395,-684.570,28.320,81.543,64.941
1701222359.174,67.383,-811.035,32.227,52.246,20.996
1701222359.178,56.152,-987.793,33.203,18.066,-53.223
1701222359.182,5.859,-972.656,28.320,30.762,-35.645
1701222359.186,-4.395,-895.020,28.809,58.105,39.062
1701222359.190,27.832,-892.578,30.273,45.410,54.199
1701222359.193,69.336,-984.375,29.785,18.066,-31.738
1701222359.197,9.277,-945.801,29.297,32.227,-49.316
1701222359.201,-39.062,-713.379,31.250,56.152,38.574
1701222359.205,29.297,-689.453,30.762,50.293,62.988
1701222359.209,77.637,-921.387,33.203,27.344,-6.836
1701222359.170,37.598,-1000.000,36.133,20.020,-74.219
1701222359.174,1.953,-805.176,30.273,55.664,9.277
1701222359.178,28.320,-581.543,28.320,71.289,90.820
1701222359.182,77.148,-805.664,33.203,41.992,22.461
1701222359.186,67.383,-1000.000,34.180,22.949,-43.457
1701222359.190,-1.953,-919.922,31.738,44.434,0.000
1701222359.194,-0.977,-747.559,32.227,85.938,79.102
1701222359.197,67.871,-838.379,35.156,61.523,58.105
1701222359.201,80.566,-1000.000,37.109,8.301,-37.109
1701222359.205,25.879,-912.598,34.180,26.855,-38.086
1701222359.209,-13.184,-591.797,30.273,69.336,60.059
1701222359.213,40.039,-703.613,33.691,57.129,73.242
1701222359.225,75.684,-1000.000,38.086,23.438,-25.391
1701222359.229,14.160,-957.520,35.156,30.762,-56.641
1701222359.233,-33.203,-715.820,31.250,62.500,33.203
1701222359.237,17.578,-693.359,29.297,71.777,77.637
1701222359.241,72.754,-918.945,32.227,36.133,30.273
1701222359.245,43.457,-983.398,35.156,26.855,-49.316
1701222359.249,-9.766,-914.062,29.297,58.594,-20.508
1701222359.252,-4.395,-904.785,31.738,62.500,52.246
1701222359.256,49.316,-979.492,35.156,32.227,-4.883
1701222359.260,68.848,-965.332,27.832,-2.930,-55.176
1701222359.264,13.672,-907.227,25.391,26.855,-1.953
1701222359.268,-11.230,-682.617,23.926,65.430,97.168
1701222359.270,56.641,-718.750,24.414,35.156,55.176
1701222359.274,70.801,-967.285,26.855,3.418,-49.805
1701222359.278,10.254,-1000.000,25.879,20.020,-40.527
1701222359.282,-11.719,-773.926,23.926,52.734,52.246
1701222359.286,19.531,-654.785,21.973,36.621,81.055
1701222359.290,56.152,-937.012,24.414,0.977,-23.926
1701222359.294,29.785,-1000.000,30.762,3.906,-64.941
1701222359.297,-11.230,-787.109,28.809,41.992,16.602
1701222359.301,34.180,-601.074,29.785,62.500,67.383
1701222359.305,73.730,-830.078,30.762,28.320,17.090
1701222359.309,32.227,-1000.000,31.250,9.766,-70.312
1701222359.313,-13.672,-873.535,30.273,37.109,-50.293
1701222359.302,6.836,-648.438,26.367,63.965,35.156
1701222359.306,54.199,-798.340,33.203,41.016,22.461
1701222359.310,52.246,-1000.000,32.227,8.789,-46.875
1701222359.314,-7.812,-868.652,25.391,17.090,-32.715
1701222359.318,-2.930,-619.629,27.344,60.059,55.176
1701222359.322,56.152,-797.363,30.762,37.109,45.410
1701222359.326,74.219,-1000.000,33.203,-13.672,-42.969
1701222359.329,17.578,-910.645,31.250,10.742,-36.621
1701222359.333,-39.062,-587.402,31.250,61.035,77.148
1701222359.337,15.137,-599.121,33.203,62.500,110.840
1701222359.341,62.988,-950.684,36.621,8.789,-3.906
1701222359.345,24.902,-987.305,35.156,2.441,-48.340
1701222359.345,-14.160,-710.449,29.785,52.246,26.855
1701222359.349,15.625,-614.746,32.715,69.336,78.125
1701222359.353,79.102,-892.578,35.645,25.879,35.156
1701222359.357,47.852,-991.699,35.156,8.789,-31.738
1701222359.361,-26.855,-921.875,33.691,40.527,-20.996
1701222359.365,-1.465,-895.508,27.344,70.801,26.855
1701222359.369,46.875,-960.449,29.785,32.715,-20.508
1701222359.372,49.805,-995.605,36.621,-11.719,-70.312
1701222359.376,-7.324,-860.352,35.645,14.160,-9.766
1701222359.380,-15.625,-660.645,31.250,61.523,48.828
1701222359.384,29.297,-736.328,33.691,58.105,43.945
1701222359.388,42.480,-909.668,41.016,18.066,-2.930
1701222359.420,8.301,-972.168,41.992,13.184,-48.340
1701222359.424,-12.207,-768.555,42.480,58.105,21.484
1701222359.428,21.973,-647.949,41.992,60.547,75.684
1701222359.432,45.898,-902.344,45.898,-0.488,-13.184
1701222359.436,14.160,-941.406,41.016,-8.301,-13.184
1701222359.440,-31.250,-815.430,34.180,45.410,62.988
1701222359.444,7.812,-668.457,34.668,59.570,92.285
1701222359.447,60.059,-797.363,37.598,22.949,30.762
1701222359.451,50.781,-988.281,39.062,5.371,-68.848
1701222359.455,-4.395,-988.281,32.715,34.668,-57.129
1701222359.459,-10.742,-812.500,30.273,69.336,30.273
1701222359.463,51.758,-711.426,29.785,38.574,46.875
1701222359.451,73.242,-947.266,33.203,0.488,-23.926
1701222359.455,6.348,-905.273,34.668,20.020,-38.574
1701222359.459,-25.391,-603.027,32.227,59.082,41.016
1701222359.463,39.551,-583.008,33.203,50.781,78.613
1701222359.467,68.359,-854.004,35.645,6.836,15.625
1701222359.471,15.625,-1000.000,35.156,13.184,-41.992
1701222359.475,-16.113,-837.402,32.227,58.594,14.648
1701222359.478,51.270,-596.191,34.180,53.223,82.031
1701222359.482,72.754,-812.988,36.133,23.926,15.625
1701222359.486,20.996,-976.562,33.691,22.949,-47.852
1701222359.490,-1.953,-749.023,31.738,44.434,20.508
1701222359.494,-1.465,-569.824,30.762,64.941,71.777
1701222359.496,38.574,-791.016,37.109,39.062,7.812
1701222359.500,43.457,-1000.000,43.457,10.742,-67.383
1701222359.504,-23.926,-760.742,37.598,34.668,-2.441
1701222359.508,-44.922,-481.445,35.645,61.035,73.242
1701222359.512,19.043,-696.289,40.527,50.781,57.129
1701222359.516,46.875,-976.074,42.480,18.555,-21.973
1701222359.520,-0.977,-938.477,35.645,20.996,-40.039
1701222359.523,-18.066,-751.465,31.738,64.453,44.434
1701222359.527,15.625,-844.727,34.180,54.199,18.066
1701222359.531,56.641,-995.605,34.180,-4.883,-43.457
1701222359.535,35.156,-783.203,31.250,-13.672,0.488
1701222359.539,-10.742,-533.691,30.762,56.152,58.594
1701222359.542,11.230,-488.770,29.785,68.359,87.402
1701222359.546,63.477,-760.742,32.227,10.254,28.809
1701222359.550,50.293,-832.031,32.227,2.930,-7.324
1701222359.554,-0.488,-668.945,26.855,43.457,32.715
1701222359.558,10.254,-583.008,27.344,73.730,68.848
1701222359.562,69.824,-731.934,29.785,47.363,38.574
1701222359.566,77.148,-974.609,32.227,20.020,-37.109
1701222359.569,25.879,-958.008,31.250,48.828,-34.668
1701222359.573,3.906,-805.176,24.414,80.566,51.758
1701222359.577,28.320,-614.746,21.484,60.547,71.289
1701222359.581,45.410,-806.641,25.879,4.883,8.789
1701222359.585,12.207,-916.992,27.344,9.277,-16.602
1701222359.586,-15.625,-604.004,27.832,66.895,49.805
1701222359.590,26.855,-520.020,27.832,67.871,69.336
1701222359.594,57.617,-875.000,25.879,10.742,-20.508
1701222359.598,31.738,-960.449,26.367,8.301,-37.598
1701222359.602,-26.855,-750.488,26.855,62.500,36.133
1701222359.606,-2.930,-706.543,26.855,73.242,62.012
1701222359.610,46.875,-886.719,28.320,25.391,30.762
1701222359.613,30.762,-1000.000,31.738,5.371,-30.273
1701222359.617,3.418,-863.770,31.250,41.992,-21.484
1701222359.621,-2.441,-497.070,28.809,73.242,79.590
1701222359.625,41.016,-643.555,28.809,49.805,58.594
1701222359.629,68.848,-1000.000,34.180,13.184,-47.363
1701222359.631,7.812,-848.633,34.668,51.270,-31.250
1701222359.635,-25.879,-540.527,31.250,92.285,60.059
1701222359.639,50.293,-700.684,32.227,44.434,49.316
1701222359.643,77.148,-998.535,34.668,-8.301,-27.344
1701222359.647,9.277,-923.340,33.203,12.695,-19.531
1701222359.651,-22.949,-773.438,30.273,61.523,62.500
1701222359.655,26.855,-845.703,33.691,67.871,67.871
1701222359.658,65.918,-971.191,36.621,22.949,-23.926
1701222359.662,17.090,-1000.000,33.691,9.277,-56.641
1701222359.666,-13.184,-788.086,30.762,49.805,34.180
1701222359.670,30.762,-621.582,28.809,64.453,114.746
1701222359.674,60.547,-867.188,30.762,21.484,61.523
1701222359.705,42.480,-1000.000,34.180,-0.977,-5.371
1701222359.709,13.184,-864.746,30.762,37.598,26.367
1701222359.713,6.348,-639.160,26.367,70.801,114.258
1701222359.717,49.316,-767.090,30.273,41.992,94.238
1701222359.721,66.406,-976.074,32.715,8.301,-24.902
1701222359.725,10.254,-971.191,30.273,26.367,-42.969
1701222359.729,-0.488,-967.285,31.250,59.570,16.602
1701222359.732,51.270,-948.730,31.250,41.016,32.715
1701222359.736,40.039,-952.637,26.855,-5.371,-16.602
1701222359.740,-15.137,-979.980,25.879,-6.348,-37.109
1701222359.744,-32.715,-959.961,28.320,48.340,8.301
1701222359.748,27.832,-839.355,28.320,58.594,59.570
1701222359.751,66.406,-866.699,30.273,0.977,16.602
1701222359.755,32.715,-1000.000,29.785,-14.160,-48.340
1701222359.759,-6.348,-835.449,27.832,26.855,21.973
1701222359.763,10.742,-609.863,26.855,58.105,78.125
1701222359.767,53.711,-786.133,25.391,29.785,41.504
1701222359.771,68.848,-995.117,28.809,-5.371,-30.762
1701222359.775,33.203,-908.691,26.855,23.926,-23.926
1701222359.778,-4.883,-638.672,22.949,57.617,53.223
1701222359.782,41.992,-666.992,22.949,24.414,55.664
1701222359.786,62.012,-951.172,27.832,-13.672,-30.762
1701222359.790,-1.953,-922.363,28.809,16.113,-47.852
1701222359.794,-35.645,-592.285,27.832,59.082,37.109
1701222359.767,11.230,-651.367,30.762,40.039,49.316
1701222359.771,51.270,-962.891,34.180,3.906,-38.574
1701222359.775,28.320,-984.863,31.738,8.789,-83.008
1701222359.779,-10.742,-665.527,24.414,57.129,5.371
1701222359.783,22.949,-449.707,24.902,67.871,89.355
1701222359.787,72.266,-824.219,29.297,21.484,0.000
1701222359.791,29.297,-1000.000,28.320,-8.301,-69.336
1701222359.794,-26.367,-639.160,23.926,24.414,36.133
1701222359.798,9.277,-446.777,25.391,47.852,94.727
1701222359.802,63.477,-797.852,28.320,24.902,22.461
1701222359.806,59.570,-974.609,29.297,5.371,-32.227
1701222359.810,-5.371,-726.562,29.785,19.531,0.488
1701222359.841,-25.879,-505.859,27.832,37.598,78.613
1701222359.845,37.109,-806.641,27.832,20.508,55.176
1701222359.849,54.199,-1000.000,29.297,-13.672,-36.133
1701222359.853,14.648,-834.473,27.344,-0.977,-25.391
1701222359.857,-20.996,-749.023,29.297,52.734,26.855
1701222359.861,16.113,-860.352,29.297,37.598,47.852
1701222359.865,64.941,-940.918,28.320,-3.906,14.160
1701222359.868,28.320,-865.723,28.320,6.836,-13.184
1701222359.872,-7.324,-636.230,27.344,43.945,54.199
1701222359.876,40.039,-533.203,30.762,67.383,85.938
1701222359.880,87.402,-685.547,37.598,37.598,25.879
1701222359.884,53.711,-891.113,39.062,18.066,-38.574
1701222359.871,6.836,-887.695,40.039,47.363,-18.555
1701222359.875,-8.789,-714.355,38.574,50.293,39.551
1701222359.879,20.996,-729.492,37.109,10.254,20.020
1701222359.883,15.625,-972.656,44.434,-37.598,-40.527
1701222359.887,-43.945,-976.074,45.898,-30.762,-34.668
1701222359.891,-75.195,-929.688,52.734,12.207,16.602
1701222359.895,-19.531,-934.082,56.641,-11.230,34.668
1701222359.898,-7.324,-974.609,63.965,-74.707,-32.227
1701222359.902,-95.215,-980.957,67.383,-99.609,-63.965
1701222359.906,-142.578,-810.547,54.688,-82.031,21.484
1701222359.910,-126.465,-760.254,50.781,-109.863,73.242
1701222359.914,-108.398,-939.453,55.176,-179.688,20.508
1701222359.917,-157.715,-1000.000,63.477,-200.684,-52.734
1701222359.921,-244.629,-868.164,73.242,-191.406,12.695
1701222359.925,-264.160,-755.859,79.590,-220.703,81.543
1701222359.929,-243.652,-921.387,80.566,-286.621,3.418
1701222359.933,-273.438,-990.234,73.242,-330.078,-58.105
1701222359.937,-325.684,-949.707,62.012,-303.711,-22.949
1701222359.941,-320.801,-799.805,55.664,-261.230,77.148
1701222359.944,-270.508,-849.609,56.641,-272.949,58.594
1701222359.948,-269.531,-988.281,52.246,-309.570,-60.059
1701222359.952,-291.504,-969.727,42.480,-288.574,-61.035
1701222359.956,-277.832,-659.668,36.621,-230.957,53.223
1701222359.960,-220.703,-627.930,32.715,-212.402,75.684
1701222359.961,-171.387,-914.551,31.738,-216.797,-0.488
1701222359.965,-174.805,-747.070,32.715,-195.801,8.301
1701222359.969,-175.781,-418.457,28.809,-136.719,70.312
1701222359.973,-106.934,-402.344,22.949,-106.445,98.633
1701222359.977,-54.688,-683.105,21.973,-127.930,28.809
1701222359.981,-80.078,-822.754,24.414,-98.145,-14.160
1701222359.985,-57.129,-595.703,18.555,-21.973,40.527
1701222359.988,-6.836,-679.688,17.090,20.020,46.875
1701222359.992,40.039,-914.062,21.484,16.113,4.883
1701222359.996,77.637,-734.863,21.973,16.113,-24.414
1701222360.000,58.594,-578.125,16.113,76.660,1.953
1701222360.004,75.195,-424.805,12.695,161.621,67.383
1701222360.007,162.109,-497.070,27.832,164.551,58.594
1701222360.011,196.289,-764.648,31.250,126.953,-17.090
1701222360.015,171.387,-721.680,22.949,162.598,-3.418
1701222360.019,176.758,-511.719,20.020,242.676,54.688
1701222360.023,226.562,-389.648,12.695,251.465,54.688
1701222360.027,280.762,-688.477,13.184,211.426,11.719
1701222360.031,259.277,-947.754,13.672,225.098,-4.395
1701222360.034,208.496,-763.672,8.789,275.391,47.363
1701222360.038,224.609,-375.488,11.230,283.203,95.703
1701222360.042,271.484,-492.676,11.719,236.816,57.617
1701222360.046,252.441,-785.645,6.836,217.773,0.000
1701222360.050,217.285,-625.000,5.859,263.184,14.648
1701222360.051,246.094,-313.477,7.812,278.320,83.984
1701222360.055,304.688,-534.180,7.324,225.586,44.922
1701222360.059,266.602,-888.672,10.254,190.918,-31.738
1701222360.063,179.688,-833.008,8.301,208.496,-13.672
1701222360.067,163.086,-574.219,2.930,240.234,47.852
1701222360.071,214.355,-673.828,6.348,217.773,65.430
1701222360.075,239.258,-979.980,11.230,168.457,-35.156
1701222360.078,174.805,-934.570,7.812,177.734,-68.359
1701222360.082,142.578,-548.340,6.348,201.172,46.387
1701222360.086,193.359,-468.750,9.277,195.801,97.168
1701222360.090,204.102,-884.277,10.742,151.367,5.371
1701222360.094,152.344,-971.680,10.742,117.188,-57.617
1701222360.111,102.051,-604.004,10.742,167.480,41.504
1701222360.115,123.047,-551.758,10.742,172.363,80.566
1701222360.119,172.363,-871.094,14.160,111.328,20.020
1701222360.123,167.480,-946.777,17.090,103.027,-13.672
1701222360.127,111.328,-724.609,16.113,127.441,18.066
1701222360.131,82.520,-719.727,19.043,148.926,68.359
1701222360.135,124.023,-962.891,20.996,118.164,37.109
1701222360.138,141.602,-1000.000,19.531,74.219,-25.879
1701222360.142,71.777,-801.270,18.555,102.539,6.836
1701222360.146,41.992,-635.742,23.926,134.766,87.891
1701222360.150,93.262,-793.945,27.344,96.680,71.289
1701222360.154,116.211,-963.867,25.391,39.551,-19.043
1701222360.144,61.035,-890.137,23.438,40.527,-35.645
1701222360.148,18.555,-849.121,22.461,82.031,20.508
1701222360.152,70.801,-860.352,20.996,91.309,59.082
1701222360.156,97.656,-843.750,20.020,51.270,12.695
1701222360.160,56.641,-979.980,22.461,35.645,-51.270
1701222360.164,23.438,-837.402,21.973,73.242,31.738
1701222360.168,32.227,-689.453,22.949,88.867,101.562
1701222360.171,92.285,-769.531,28.320,50.781,68.848
1701222360.175,96.191,-952.148,27.832,14.160,-16.602
1701222360.179,25.879,-935.059,20.996,44.922,-20.508
1701222360.183,16.113,-583.496,21.484,84.473,80.078
1701222360.187,70.312,-574.707,24.902,56.641,87.891
1701222360.200,80.078,-930.176,29.785,7.812,-24.902
1701222360.204,23.926,-907.715,28.320,23.926,-42.480
1701222360.208,2.441,-570.801,20.996,75.684,69.336
1701222360.212,41.992,-590.332,25.391,74.707,81.543
1701222360.216,76.172,-877.441,33.203,32.715,-2.930
1701222360.220,32.715,-1000.000,34.668,30.273,-60.547
1701222360.224,-11.230,-907.715,24.902,45.898,-16.602
1701222360.227,37.109,-648.438,18.555,42.969,60.059
1701222360.231,50.293,-793.457,24.414,25.391,25.879
1701222360.235,36.133,-1000.000,25.391,5.371,-35.156
1701222360.239,7.324,-743.164,22.461,31.738,10.742
1701222360.243,7.812,-516.602,20.996,48.340,82.520
1701222360.307,51.270,-773.926,22.461,-3.906,47.363
1701222360.311,62.500,-1000.000,20.508,-19.531,-19.531
1701222360.315,10.254,-807.129,14.648,22.461,2.930
1701222360.319,-12.695,-458.496,15.625,47.852,93.262
1701222360.323,50.293,-582.031,20.508,19.531,101.562
1701222360.327,62.500,-938.477,23.438,-18.555,21.973
1701222360.331,0.977,-940.918,25.879,5.859,3.906
1701222360.334,-26.367,-621.582,24.902,45.898,55.664
1701222360.338,25.391,-738.281,27.344,53.711,69.336
1701222360.342,72.266,-1000.000,28.320,12.207,0.977
1701222360.346,22.461,-920.898,25.391,12.695,-35.156
1701222360.350,-31.738,-701.172,25.391,65.430,30.273
1701222360.310,30.273,-580.078,24.902,59.082,83.984
1701222360.314,77.637,-722.656,23.926,8.301,44.434
1701222360.318,39.551,-882.812,26.855,-12.207,-4.395
1701222360.322,-12.695,-849.609,27.344,19.043,16.113
1701222360.326,-29.297,-700.195,23.438,54.688,61.035
1701222360.330,20.996,-809.082,25.879,28.320,42.480
1701222360.334,40.527,-995.117,28.809,-6.836,-29.297
1701222360.337,-15.137,-969.727,26.855,22.461,-19.043
1701222360.341,-4.395,-692.871,26.855,60.547,72.266
1701222360.345,52.734,-568.359,31.738,45.898,103.516
1701222360.349,56.641,-876.953,31.738,2.441,14.648
1701222360.353,5.859,-1000.000,30.273,20.996,-39.062
1701222360.366,-11.230,-722.656,29.297,62.012,49.805
1701222360.370,36.621,-577.148,25.879,51.758,98.145
1701222360.374,84.961,-878.906,25.879,19.531,17.578
1701222360.378,52.246,-1000.000,29.297,10.742,-31.738
1701222360.382,-5.371,-744.141,27.344,50.293,29.297
1701222360.386,16.602,-708.984,26.855,65.918,70.312
1701222360.390,66.895,-955.566,30.273,34.668,-6.348
1701222360.393,63.965,-989.258,30.273,11.719,-55.664
1701222360.397,6.836,-921.387,31.250,18.555,-8.301
1701222360.401,-7.324,-770.020,29.297,53.223,72.754
1701222360.405,35.156,-872.559,31.738,41.504,57.617
1701222360.409,67.383,-975.586,35.645,2.441,-29.297
1701222360.426,33.203,-1000.000,32.715,18.555,-60.547
1701222360.430,-9.766,-801.270,28.809,51.758,41.504
1701222360.434,29.785,-687.500,31.250,46.387,92.773
1701222360.438,69.336,-975.098,32.715,10.742,-0.488
1701222360.442,23.926,-955.566,31.250,10.254,-33.203
1701222360.446,-28.320,-703.125,34.668,60.547,66.406
1701222360.450,13.672,-735.840,36.621,57.129,106.445
1701222360.453,70.312,-976.074,35.156,-4.883,0.977
1701222360.457,36.621,-979.980,33.691,-13.672,-37.109
1701222360.461,-0.977,-778.320,30.762,40.527,25.879
1701222360.465,26.855,-726.562,27.832,66.406,71.777
1701222360.469,58.105,-942.871,29.297,28.809,23.926
1701222360.430,37.598,-1000.000,32.227,-11.719,-41.504
1701222360.434,-12.207,-845.703,27.832,27.832,-12.695
1701222360.438,-11.719,-797.852,25.879,79.590,35.156
1701222360.442,41.504,-981.934,29.297,50.293,-12.207
1701222360.446,63.477,-963.379,29.785,5.859,-69.336
1701222360.450,21.973,-986.816,29.297,19.531,-50.293
1701222360.454,-8.789,-864.746,24.902,59.570,40.039
1701222360.457,21.484,-656.738,23.438,45.898,86.914
1701222360.461,67.871,-806.641,23.438,-1.465,33.691
1701222360.465,32.715,-971.680,20.020,16.602,-18.066
1701222360.469,2.930,-830.566,20.508,73.730,14.160
1701222360.473,26.367,-596.191,28.320,58.105,74.707
1701222360.487,40.039,-802.734,31.250,1.953,34.668
1701222360.491,44.434,-1000.000,35.156,-12.695,-53.711
1701222360.495,5.859,-842.773,35.645,36.133,-32.227
1701222360.499,-5.371,-554.688,34.180,70.801,65.430
1701222360.503,41.992,-714.844,42.480,37.598,46.875
1701222360.507,45.898,-971.191,46.875,2.441,-53.711
1701222360.511,-0.977,-982.910,46.387,23.438,-68.848
1701222360.514,-11.230,-935.059,41.016,66.406,9.277
1701222360.518,32.715,-813.965,36.621,50.781,35.156
1701222360.522,52.734,-937.988,40.039,8.301,-55.664
1701222360.526,27.344,-880.371,40.527,19.531,-42.480
1701222360.530,-0.488,-462.891,35.645,62.988,78.613
1701222360.530,27.344,-407.715,36.621,55.664,105.957
1701222360.534,70.312,-794.922,40.527,10.742,18.555
1701222360.538,47.852,-1000.000,41.504,8.301,-36.621
1701222360.542,-6.836,-686.035,33.691,55.664,41.016
1701222360.546,26.367,-514.160,32.227,60.059,63.965
1701222360.550,84.473,-874.512,39.062,23.926,-31.250
1701222360.554,42.969,-1000.000,41.504,23.438,-41.992
1701222360.557,-13.184,-782.227,41.992,55.176,-7.812
1701222360.561,0.977,-565.918,36.621,69.824,38.086
1701222360.565,48.828,-813.477,36.621,32.227,9.277
1701222360.569,44.434,-1000.000,39.062,-0.977,-56.152
1701222360.573,3.418,-793.457,36.621,29.785,-15.625
1701222360.591,-5.371,-555.176,36.133,69.336,41.504
1701222360.595,54.688,-647.461,39.062,55.176,36.621
1701222360.599,79.590,-837.891,40.527,19.531,-10.742
1701222360.603,18.555,-839.844,37.598,29.785,-42.969
1701222360.607,-19.043,-640.137,36.621,76.172,18.066
1701222360.611,32.227,-689.453,36.133,62.988,64.941
1701222360.615,66.406,-928.223,34.668,23.438,-4.395
1701222360.618,42.480,-967.285,33.691,20.020,-35.156
1701222360.622,9.277,-909.180,35.156,51.758,9.277
1701222360.626,20.020,-950.684,33.691,83.008,19.043
1701222360.630,67.383,-897.461,27.832,40.039,9.277
1701222360.634,55.664,-914.062,30.273,10.742,-32.227
1701222360.636,6.348,-812.012,33.203,50.293,-8.301
1701222360.640,8.301,-546.875,28.809,80.078,65.430
1701222360.644,49.805,-624.023,29.297,56.152,52.246
1701222360.648,53.223,-890.137,31.738,3.418,-4.883
1701222360.652,-11.719,-908.203,30.273,10.254,-28.320
1701222360.656,-21.973,-705.078,27.832,61.035,33.691
1701222360.660,44.922,-783.691,28.320,51.270,41.016
1701222360.663,62.988,-965.820,30.762,3.418,-24.414
1701222360.667,7.324,-981.934,30.762,11.719,-54.688
1701222360.671,-23.926,-722.168,22.461,62.988,23.438
1701222360.675,31.738,-480.957,24.414,69.824,73.730
1701222360.679,67.871,-749.512,38.086,17.090,12.207
1701222360.695,20.020,-1000.000,40.527,2.441,-73.242
1701222360.699,-14.648,-795.898,37.598,41.992,-18.555
1701222360.703,6.836,-385.254,33.691,63.965,99.121
1701222360.707,41.016,-644.043,36.133,32.227,56.641
1701222360.711,41.992,-966.309,41.016,-1.953,-20.996
1701222360.715,-2.930,-843.750,41.992,39.551,-0.977
1701222360.719,-11.230,-662.598,40.039,72.754,50.293
1701222360.722,58.105,-722.168,37.598,55.664,55.176
1701222360.726,76.660,-965.332,37.598,6.348,-25.879
1701222360.730,29.297,-888.672,36.621,9.277,-60.547
1701222360.734,-16.113,-465.332,34.668,58.594,61.523
1701222360.738,2.930,-607.910,38.574,57.617,71.777
1701222360.726,52.246,-1000.000,39.062,14.160,-62.500
1701222360.730,16.602,-923.340,35.156,11.230,-84.961
1701222360.734,-32.715,-625.000,36.133,62.012,-3.418
1701222360.738,13.672,-501.953,38.574,65.918,62.500
1701222360.742,80.566,-725.586,39.551,21.973,28.809
1701222360.746,50.293,-979.980,40.527,13.184,-60.547
1701222360.750,-3.418,-864.258,38.574,56.152,-22.949
1701222360.753,30.273,-607.910,34.180,75.195,54.199
1701222360.757,64.941,-641.113,34.668,39.062,37.598
1701222360.761,45.898,-777.344,37.109,18.555,-12.207
1701222360.765,-0.977,-732.910,34.668,47.363,-12.695
1701222360.769,-7.812,-567.871,34.180,71.777,50.781
1701222360.756,35.156,-610.352,35.645,45.410,31.738
1701222360.760,54.688,-844.727,36.621,3.906,-41.992
1701222360.764,19.531,-909.180,35.645,7.324,-48.828
1701222360.768,-27.344,-973.145,33.691,56.152,-27.344
1701222360.772,14.160,-820.312,34.668,59.570,25.391
1701222360.776,53.711,-803.711,38.086,8.301,8.789
1701222360.780,24.902,-1000.000,32.715,0.000,-72.754
1701222360.783,-7.324,-710.938,28.320,45.410,-13.672
1701222360.787,14.648,-358.398,33.203,60.547,70.312
1701222360.791,56.641,-589.355,33.691,15.137,15.137
1701222360.795,31.738,-939.941,33.203,-1.465,-67.871
1701222360.799,-2.441,-766.113,32.227,47.363,-27.832
1701222360.816,14.160,-349.609,28.809,69.824,65.430
1701222360.820,59.082,-449.219,25.879,29.297,56.641
1701222360.824,70.312,-880.859,29.297,4.883,-44.434
1701222360.828,20.508,-838.867,34.180,26.367,-51.270
1701222360.832,2.930,-390.137,33.203,60.547,42.480
1701222360.836,39.062,-535.645,36.133,44.922,59.570
1701222360.840,41.016,-951.172,41.504,2.930,-51.758
1701222360.843,3.418,-898.926,41.016,11.719,-98.633
1701222360.847,-14.648,-462.402,37.598,58.594,12.695
1701222360.851,21.484,-360.840,38.574,48.340,71.289
1701222360.855,69.336,-728.027,39.062,-4.883,11.230
1701222360.859,41.016,-868.164,39.551,-9.766,-73.242
1701222360.862,-2.930,-531.738,37.109,29.297,-17.090
1701222360.866,47.363,-401.855,32.715,46.387,48.340
1701222360.870,93.262,-703.125,34.180,15.137,-0.488
1701222360.874,60.059,-824.219,36.621,-12.695,-52.246
1701222360.878,4.883,-585.449,35.156,31.250,-14.160
1701222360.882,-7.324,-542.969,31.250,71.289,36.133
1701222360.886,54.199,-755.859,29.785,42.969,11.230
1701222360.889,66.895,-816.406,34.668,5.371,-50.293
1701222360.893,22.461,-771.973,35.645,32.715,-70.312
1701222360.897,-3.418,-666.504,36.133,81.055,3.418
1701222360.901,39.551,-871.582,38.574,65.430,12.207
1701222360.905,75.684,-888.672,38.574,8.301,-31.738
1701222360.906,43.457,-673.828,38.574,16.602,-36.621
1701222360.910,1.465,-473.145,39.062,81.543,8.301
1701222360.914,30.273,-360.352,36.133,74.707,40.527
1701222360.918,66.895,-579.102,36.133,14.648,-17.090
1701222360.922,40.527,-740.723,35.156,-2.441,-65.918
1701222360.926,5.371,-593.750,32.227,46.387,-7.324
1701222360.930,18.066,-327.148,34.180,86.426,82.031
1701222360.933,53.223,-360.352,35.645,52.734,55.664
1701222360.937,39.551,-609.863,34.668,14.160,-23.926
1701222360.941,-1.953,-851.562,34.668,52.734,-47.363
1701222360.945,10.742,-608.887,29.785,77.637,16.602
1701222360.949,78.125,-384.277,29.785,42.480,42.480
1701222360.969,86.914,-746.582,30.273,1.465,-25.879
1701222360.973,17.578,-791.016,25.879,16.602,-48.340
1701222360.977,-6.348,-334.961,26.855,59.570,31.250
1701222360.981,32.227,-229.492,28.320,42.480,58.105
1701222360.985,56.152,-680.176,30.273,5.859,-13.672
1701222360.989,33.691,-921.875,33.691,11.230,-55.664
1701222360.993,-9.277,-605.957,31.738,63.965,5.859
1701222360.996,40.527,-279.297,30.762,79.590,84.961
1701222361.000,79.590,-619.629,35.645,40.527,19.531
1701222361.004,41.504,-942.383,37.109,22.461,-78.125
1701222361.008,4.395,-544.434,34.180,49.316,-5.371
1701222361.012,2.930,-302.734,31.738,74.707,69.824
1701222360.995,50.781,-591.797,31.738,48.340,21.973
1701222360.999,42.480,-808.594,33.203,5.859,-28.320
1701222361.003,12.695,-645.020,27.344,37.598,-9.766
1701222361.007,15.625,-363.770,27.344,83.984,47.852
1701222361.011,28.809,-480.957,33.203,44.434,49.805
1701222361.015,66.406,-921.875,34.668,-5.859,-37.598
1701222361.019,25.879,-882.812,36.133,13.672,-55.176
1701222361.022,-30.273,-563.965,36.621,56.152,26.855
1701222361.026,19.043,-627.441,35.645,56.641,45.410
1701222361.030,57.129,-909.668,40.039,7.812,-41.504
1701222361.034,14.160,-951.172,42.480,5.859,-72.754
1701222361.038,-23.926,-656.738,37.598,36.133,18.066
1701222361.042,7.324,-736.328,37.598,31.250,43.457
1701222361.046,51.270,-1000.000,42.969,2.441,-52.734
1701222361.050,38.086,-868.164,38.574,-20.020,-83.984
1701222361.054,5.859,-578.125,36.621,30.762,5.371
1701222361.058,10.742,-334.961,40.527,74.219,72.266
1701222361.062,53.223,-565.918,43.457,45.898,21.973
1701222361.066,55.176,-834.961,39.551,-0.977,-22.461
1701222361.069,0.977,-794.434,41.016,35.156,-22.461
1701222361.073,-24.414,-606.934,37.109,71.777,11.230
1701222361.077,26.855,-337.891,31.250,41.016,51.758
1701222361.081,62.500,-475.098,44.434,14.160,5.859
1701222361.085,12.695,-723.633,46.875,16.602,-49.316
1701222361.085,-6.348,-464.844,35.645,61.523,-1.953
1701222361.089,39.062,-91.797,32.227,63.965,68.359
1701222361.093,51.270,-336.426,38.574,4.395,17.578
1701222361.097,12.207,-708.008,43.945,-7.812,-46.387
1701222361.101,-4.883,-487.305,42.480,47.852,-20.020
1701222361.105,13.672,-172.852,40.527,73.242,39.551
1701222361.109,47.363,-374.023,38.574,19.043,22.461
1701222361.112,39.551,-796.875,41.016,-4.883,-62.500
1701222361.116,3.418,-741.699,42.969,38.574,-46.387
1701222361.120,9.277,-68.848,41.016,67.383,32.715
1701222361.124,66.895,-101.074,45.410,47.363,5.859
1701222361.128,80.078,-438.965,43.945,26.855,-41.992
1701222361.145,21.973,-256.836,40.527,33.203,-27.344
1701222361.149,-1.465,102.539,41.016,48.340,40.039
1701222361.153,48.340,-1.953,41.504,53.223,49.316
1701222361.157,72.754,-382.812,42.480,11.719,-29.297
1701222361.161,21.484,-340.332,43.945,16.602,-40.527
1701222361.165,6.836,-81.055,43.945,69.336,33.203
1701222361.169,57.617,-178.223,46.387,75.195,62.012
1701222361.172,76.660,-648.926,45.898,31.250,-19.043
1701222361.176,42.480,-556.641,39.551,5.859,-49.805
1701222361.180,17.090,-139.160,39.551,48.340,7.812
1701222361.184,36.621,7.324,43.457,75.195,83.496
1701222361.188,68.848,-271.973,43.945,41.016,61.523
1701222361.192,56.152,-497.559,41.016,6.348,-21.484
1701222361.196,19.531,-309.082,42.480,26.367,-17.578
1701222361.200,16.602,-316.406,45.410,64.453,5.859
1701222361.204,60.059,-432.129,47.363,40.039,25.391
1701222361.208,71.289,-503.418,50.293,-4.395,-8.301
1701222361.212,38.086,-690.918,50.781,25.391,-51.758
1701222361.216,15.625,-526.855,47.363,65.430,10.742
1701222361.219,30.762,-352.539,47.363,53.711,44.922
1701222361.223,70.801,-617.676,52.246,28.320,-28.320
1701222361.227,40.527,-702.637,47.363,23.438,-50.781
1701222361.231,-1.953,-717.773,41.016,48.828,-11.230
1701222361.235,50.293,-581.055,43.945,58.594,21.484
1701222361.280,68.848,-516.602,43.457,21.484,-9.277
1701222361.284,33.691,-776.367,36.621,-5.371,-52.246
1701222361.288,10.742,-604.492,32.227,35.156,0.488
1701222361.292,13.672,-259.277,29.785,59.570,62.012
1701222361.296,62.012,-413.086,30.273,23.926,37.109
1701222361.300,62.988,-881.348,32.227,-0.977,-24.414
1701222361.304,17.578,-797.363,30.762,13.672,-0.488
1701222361.307,17.090,-269.043,31.250,55.664,92.285
1701222361.311,49.805,-359.375,34.668,47.852,65.430
1701222361.315,57.129,-804.688,37.109,17.578,-43.457
1701222361.319,23.926,-1000.000,38.574,23.926,-81.055
1701222361.323,23.926,-596.191,33.691,47.852,20.020
1701222361.284,48.828,-275.391,33.203,58.594,77.148
1701222361.288,49.805,-700.195,38.574,9.766,-18.555
1701222361.292,35.156,-795.410,35.645,-20.508,-43.945
1701222361.296,11.719,-351.074,32.715,35.156,46.875
1701222361.300,28.809,-251.465,37.598,65.918,77.148
1701222361.304,64.453,-709.473,41.016,13.672,14.160
1701222361.308,53.223,-962.402,38.574,5.859,-40.039
1701222361.311,13.672,-537.598,34.668,55.664,26.367
1701222361.315,7.324,-201.172,34.668,61.523,86.914
1701222361.319,46.387,-490.723,40.039,24.414,41.016
1701222361.323,55.176,-689.453,40.039,-4.883,-6.348
1701222361.327,17.578,-465.332,36.133,18.555,14.160
1701222361.341,3.418,-279.297,33.691,60.059,64.941
1701222361.345,48.828,-391.113,36.621,44.922,80.078
1701222361.349,69.336,-611.328,39.062,-8.301,13.672
1701222361.353,24.902,-589.355,36.621,3.906,-19.043
1701222361.357,-0.977,-395.996,37.598,57.617,47.363
1701222361.361,46.875,-478.516,37.109,57.129,78.125
1701222361.365,82.031,-766.113,38.086,13.184,5.371
1701222361.368,21.973,-906.250,39.551,-0.977,-56.641
1701222361.372,-8.301,-693.848,34.180,44.922,9.277
1701222361.376,15.137,-803.711,34.668,71.777,42.969
1701222361.380,55.176,-964.355,39.551,36.133,-4.395
1701222361.384,52.734,-739.258,40.527,14.160,-4.395
1701222361.370,4.395,-506.348,33.203,34.668,30.762
1701222361.374,15.625,-286.621,29.297,62.500,70.312
1701222361.378,70.801,-384.277,36.133,42.480,41.504
1701222361.382,62.500,-714.844,44.922,6.836,-24.414
1701222361.386,4.395,-734.375,45.898,19.043,-24.902
1701222361.390,-15.137,-535.156,42.969,59.570,34.180
1701222361.394,27.344,-562.988,49.316,46.875,59.082
1701222361.397,44.922,-827.148,55.664,0.488,7.324
1701222361.401,9.766,-896.973,53.223,0.000,-30.273
1701222361.405,-23.438,-524.414,51.758,44.922,27.832
1701222361.409,4.883,-423.828,50.781,62.012,69.824
1701222361.413,47.852,-823.242,51.758,17.578,21.484
1701222361.416,23.926,-1000.000,55.176,-5.371,-55.176
1701222361.420,-3.418,-832.031,50.293,27.832,-42.480
1701222361.424,35.645,-394.043,43.945,52.734,71.777
1701222361.428,61.523,-560.547,47.852,22.461,61.035
1701222361.432,50.293,-878.906,51.758,-2.441,-7.324
1701222361.436,20.508,-741.699,52.246,25.879,-0.977
1701222361.440,10.742,-495.605,49.316,67.383,60.547
1701222361.443,50.781,-651.855,48.828,59.082,60.059
1701222361.447,72.266,-998.535,49.805,5.371,-31.250
1701222361.451,27.832,-726.562,45.898,13.184,-23.438
1701222361.455,-3.906,-262.695,46.387,69.336,74.707
1701222361.459,36.133,-350.098,52.246,61.035,75.684
1701222361.477,66.406,-593.750,57.617,20.020,38.574
1701222361.481,37.109,-709.473,52.246,9.766,-0.977
1701222361.485,-5.371,-500.488,50.781,39.551,35.645
1701222361.489,5.859,-370.605,51.758,40.527,86.914
1701222361.493,44.922,-705.078,48.828,-8.301,0.977
1701222361.497,18.555,-857.422,51.758,-10.254,-35.156
1701222361.501,-14.648,-661.621,52.246,33.691,11.230
1701222361.504,-8.301,-676.758,55.664,69.336,32.715
1701222361.508,28.809,-847.168,59.082,34.180,18.066
1701222361.512,53.711,-747.559,51.758,-11.230,-29.785
1701222361.516,8.301,-647.461,43.945,17.578,-31.738
1701222361.520,-14.160,-409.668,45.410,56.641,33.691
1701222361.521,48.828,-365.234,48.340,38.086,42.969
1701222361.525,75.684,-598.145,52.246,1.465,-8.301
1701222361.529,23.438,-728.516,54.199,6.836,-44.922
1701222361.533,-8.789,-449.219,49.805,55.176,14.160
1701222361.537,29.297,-305.664,44.922,49.805,68.359
1701222361.541,64.453,-708.984,50.781,-0.977,-0.977
1701222361.545,27.344,-943.359,53.711,-2.441,-59.082
1701222361.548,-11.230,-564.453,48.828,32.715,4.395
1701222361.552,29.785,-171.387,49.316,48.340,80.566
1701222361.556,62.012,-359.863,54.688,12.695,46.387
1701222361.560,30.762,-790.039,61.523,-2.441,-55.176
1701222361.564,-3.418,-975.098,63.477,32.227,-66.406
1701222361.566,0.977,-450.684,59.082,57.129,47.363
1701222361.570,52.246,-271.973,57.617,37.109,57.129
1701222361.574,73.242,-693.359,61.035,7.324,-34.180
1701222361.578,34.180,-574.219,67.383,24.414,-24.902
1701222361.582,0.000,-185.059,66.406,66.895,41.504
1701222361.586,21.484,-373.535,73.730,70.312,41.504
1701222361.590,56.152,-773.438,78.125,22.949,-27.344
1701222361.593,31.250,-749.023,68.848,13.672,-51.758
1701222361.597,-1.465,-356.445,70.312,63.965,30.762
1701222361.601,37.109,-170.898,74.219,68.359,72.266
1701222361.605,73.730,-734.863,75.195,13.672,-23.926
1701222361.609,38.574,-920.410,73.242,-1.465,-74.707
1701222361.596,4.883,-346.191,67.871,36.621,21.973
1701222361.600,41.992,-165.527,67.383,52.734,83.496
1701222361.604,58.105,-485.352,77.148,20.020,28.320
1701222361.608,34.668,-666.504,77.637,1.953,-44.922
1701222361.612,16.113,-431.152,76.172,45.898,-8.789
1701222361.616,20.996,-289.551,82.520,87.402,80.566
1701222361.620,62.988,-556.641,82.520,55.664,58.105
1701222361.623,62.500,-713.867,82.520,17.578,-29.785
1701222361.627,21.484,-517.578,81.055,41.992,-26.367
1701222361.631,5.859,-391.602,79.102,80.566,30.273
1701222361.635,60.059,-545.410,83.008,67.871,43.945
1701222361.639,89.355,-634.766,86.914,41.016,27.832
1701222361.700,39.551,-553.223,90.332,25.391,-4.883
1701222361.704,15.137,-540.527,88.867,63.477,15.137
1701222361.708,56.152,-633.301,82.520,68.848,49.316
1701222361.712,78.125,-620.117,83.496,23.926,-4.395
1701222361.716,41.504,-645.508,84.961,20.020,-30.273
1701222361.720,14.160,-568.848,84.473,62.988,12.207
1701222361.724,23.926,-453.613,83.496,81.055,49.805
1701222361.727,50.293,-509.277,78.125,31.250,26.367
1701222361.731,54.688,-710.938,78.613,0.000,-31.250
1701222361.735,6.348,-816.895,79.590,32.227,-20.996
1701222361.739,1.465,-447.754,73.730,72.266,68.359
1701222361.743,50.781,-298.828,75.684,59.082,69.824
1701222361.705,57.129,-734.863,80.566,17.090,-18.555
1701222361.709,19.531,-811.523,77.148,30.762,-10.742
1701222361.713,0.488,-381.836,77.637,69.336,67.871
1701222361.717,34.180,-295.410,74.707,54.199,69.824
1701222361.721,52.734,-730.957,71.289,12.695,-17.578
1701222361.725,28.809,-937.988,70.801,21.973,-47.363
1701222361.729,13.672,-602.051,58.594,61.523,20.020
1701222361.732,27.832,-302.734,52.246,63.965,70.312
1701222361.736,55.664,-649.902,69.824,24.902,20.020
1701222361.740,37.109,-936.035,96.191,16.113,-43.945
1701222361.744,7.324,-578.125,120.605,56.152,10.742
1701222361.748,13.672,-313.965,146.484,72.266,71.289
1701222361.746,57.129,-659.180,173.340,39.062,27.344
1701222361.750,52.734,-982.422,196.289,6.836,-46.875
1701222361.754,7.812,-710.449,204.102,26.367,-16.602
1701222361.758,7.324,-372.070,213.379,60.547,70.801
1701222361.762,45.410,-623.535,229.980,52.734,48.340
1701222361.766,58.105,-996.094,237.793,17.578,-47.852
1701222361.770,20.996,-946.777,237.305,12.207,-70.801
1701222361.773,-1.953,-685.059,240.234,55.176,16.113
1701222361.777,40.039,-737.305,246.094,65.430,55.664
1701222361.781,69.336,-1000.000,248.535,22.461,-42.969
1701222361.785,23.926,-849.609,248.047,13.184,-54.688
1701222361.789,-7.324,-531.738,242.676,43.457,30.273
1701222361.806,18.555,-373.047,242.676,72.266,93.262
1701222361.810,50.293,-556.641,244.141,27.832,42.480
1701222361.814,25.391,-768.555,240.723,-9.277,-27.344
1701222361.818,-5.859,-649.414,235.840,29.297,0.488
1701222361.822,-2.930,-435.547,234.375,47.852,53.223
1701222361.826,34.668,-589.355,230.957,20.508,50.293
1701222361.830,50.293,-879.395,231.934,-8.301,-13.184
1701222361.833,10.742,-792.969,234.375,25.391,-8.789
1701222361.837,10.254,-852.539,233.398,69.824,12.207
1701222361.841,49.805,-680.664,227.051,59.570,33.691
1701222361.845,62.500,-644.531,222.168,14.160,-7.324
1701222361.849,13.184,-791.504,218.262,11.230,-29.785
1701222361.836,-22.461,-437.988,212.891,48.828,44.922
1701222361.840,30.762,-269.043,206.055,51.758,70.801
1701222361.844,61.035,-605.957,199.707,10.254,0.488
1701222361.848,22.461,-831.543,200.195,-1.953,-40.039
1701222361.852,-6.836,-531.250,194.824,43.945,20.996
1701222361.856,9.277,-375.000,190.430,57.617,62.988
1701222361.860,55.176,-735.352,188.477,29.785,13.184
1701222361.863,72.266,-955.566,182.129,16.602,-60.059
1701222361.867,25.879,-602.539,181.152,36.621,-2.441
1701222361.871,-3.906,-189.453,185.059,57.617,106.445
1701222361.875,42.480,-415.039,186.035,26.367,93.262
1701222361.879,57.129,-935.059,184.082,-11.230,-28.320
1701222361.897,-0.977,-871.094,178.223,9.766,-55.176
1701222361.901,-13.184,-354.004,173.828,50.293,35.156
1701222361.905,41.504,-375.000,174.316,41.992,57.617
1701222361.909,52.246,-770.996,175.293,2.930,-17.578
1701222361.913,2.930,-747.070,176.270,18.066,-50.293
1701222361.917,-27.832,-461.426,170.898,62.988,36.133
1701222361.921,9.766,-475.098,165.527,62.988,85.938
1701222361.924,37.598,-872.070,164.551,17.090,-1.465
1701222361.928,27.344,-842.285,161.621,-2.441,-54.688
1701222361.932,2.930,-419.434,160.156,46.875,13.184
1701222361.936,7.324,-265.137,159.668,73.242,79.590
1701222361.940,43.945,-488.770,152.832,39.062,40.039
1701222361.927,42.969,-705.078,148.926,8.301,-25.391
1701222361.931,-3.418,-640.625,145.020,37.109,-10.254
1701222361.935,-3.418,-395.508,140.625,76.660,62.500
1701222361.939,41.992,-419.434,142.578,53.223,59.082
1701222361.943,53.223,-662.109,137.207,7.812,-16.113
1701222361.947,7.324,-775.879,130.371,11.230,-23.926
1701222361.951,-0.977,-544.434,125.488,46.387,41.992
1701222361.954,35.645,-396.973,124.512,54.199,42.969
1701222361.958,45.898,-640.625,126.953,15.625,-18.555
1701222361.962,23.926,-703.613,125.000,5.371,-39.062
1701222361.966,-3.418,-784.180,120.605,49.316,-9.277
1701222361.970,18.555,-769.043,121.094,60.059,26.367
1701222361.971,45.898,-565.430,119.629,26.367,22.461
1701222361.975,37.598,-735.352,113.770,13.672,-16.602
1701222361.979,1.953,-611.328,111.328,43.457,9.277
1701222361.983,-3.418,-247.559,110.352,57.617,79.102
1701222361.987,31.738,-520.020,108.398,25.391,39.062
1701222361.991,26.855,-935.059,103.516,-8.789,-62.500
1701222361.995,-7.324,-946.289,100.586,16.113,-69.336
1701222361.998,-3.906,-470.703,98.145,59.570,55.664
1701222362.002,31.250,-270.508,98.145,36.133,88.867
1701222362.006,47.363,-770.020,94.727,-5.371,-17.090
1701222362.010,25.391,-816.406,89.355,0.488,-26.367
1701222362.014,1.465,-324.219,87.891,39.062,58.594
1701222362.031,20.508,-236.328,88.867,47.363,69.824
1701222362.035,45.410,-708.496,92.773,13.184,-14.160
1701222362.039,21.484,-893.555,96.191,0.977,-64.941
1701222362.043,1.465,-448.730,89.355,33.203,0.977
1701222362.047,17.090,-258.789,83.984,54.688,55.664
1701222362.051,53.711,-620.117,85.449,20.020,18.066
1701222362.055,44.434,-977.539,84.961,-4.883,-58.105
1701222362.058,11.719,-685.059,81.055,26.855,-7.812
1701222362.062,5.859,-229.980,79.590,59.570,83.984
1701222362.066,33.691,-613.770,80.078,29.785,35.645
1701222362.070,28.320,-961.426,75.195,-9.766,-41.992
1701222362.074,-11.230,-588.379,74.707,12.207,-29.785
1701222362.076,-9.766,-309.570,79.102,58.105,35.645
1701222362.080,31.250,-379.395,74.219,44.434,59.082
1701222362.084,43.457,-648.438,73.730,-4.883,-16.602
1701222362.088,21.484,-636.719,73.730,1.953,-27.832
1701222362.092,16.113,-377.930,72.266,51.270,59.570
1701222362.096,36.133,-427.246,77.148,56.152,93.262
1701222362.100,44.434,-718.750,82.520,15.137,44.434
1701222362.103,11.230,-726.074,79.102,-3.906,3.906
1701222362.107,-20.508,-561.523,71.289,35.645,31.250
1701222362.111,6.348,-672.363,73.242,71.289,63.965
1701222362.115,50.293,-737.305,77.148,37.109,22.949
1701222362.119,40.039,-784.180,76.172,-3.418,-54.199
1701222362.137,0.000,-713.379,73.242,20.508,-24.902
1701222362.141,8.301,-365.723,73.730,55.664,79.102
1701222362.145,62.500,-313.477,72.754,31.250,89.844
1701222362.149,58.594,-637.695,70.801,-4.883,12.695
1701222362.153,-5.859,-796.875,69.824,23.926,-24.902
1701222362.157,-21.973,-584.473,67.871,61.035,39.062
1701222362.161,18.066,-502.441,67.871,55.664,81.543
1701222362.164,36.133,-790.527,71.289,12.207,-2.930
1701222362.168,1.953,-1000.000,72.266,12.207,-68.359
1701222362.172,-23.926,-730.469,64.941,55.664,12.695
1701222362.176,21.973,-297.852,60.059,49.316,89.844
1701222362.180,52.246,-557.617,64.941,16.602,35.156
1701222362.195,22.461,-875.977,64.941,4.883,-9.277
1701222362.199,-14.648,-652.344,55.664,26.367,23.926
1701222362.203,-11.230,-359.863,55.176,62.988,44.922
1701222362.207,22.949,-620.117,61.523,43.945,8.301
1701222362.211,26.367,-959.473,61.523,-14.160,-45.898
1701222362.215,-8.789,-802.246,59.570,7.324,-16.602
1701222362.219,-2.441,-481.445,60.547,50.293,61.523
1701222362.222,38.086,-590.332,62.012,29.785,51.270
1701222362.226,41.504,-804.688,60.547,-6.836,22.461
1701222362.230,15.137,-664.551,59.570,3.418,6.836
1701222362.234,-3.906,-387.695,57.129,45.410,20.508
1701222362.238,34.180,-511.230,58.105,42.969,52.246
1701222362.211,40.039,-965.820,58.594,8.789,-12.695
1701222362.215,-4.395,-831.055,55.176,3.906,-42.969
1701222362.219,-9.277,-382.324,50.781,48.828,42.969
1701222362.223,37.109,-297.852,46.387,61.035,108.887
1701222362.227,64.453,-604.004,50.781,11.719,41.016
1701222362.231,31.738,-870.605,49.805,-2.441,-43.457
1701222362.235,-8.789,-703.613,48.340,37.598,-11.230
1701222362.238,-1.953,-372.070,48.828,68.848,62.500
1701222362.242,48.340,-432.617,50.293,30.273,63.477
1701222362.246,57.129,-658.203,48.828,-17.578,-8.789
1701222362.250,16.113,-636.230,46.875,20.508,-18.066
1701222362.254,0.488,-524.902,50.293,67.383,42.480
1701222362.271,38.574,-475.098,47.852,43.945,62.500
1701222362.275,45.410,-599.121,46.387,20.020,14.160
1701222362.279,11.230,-733.887,47.852,27.832,-21.484
1701222362.283,3.418,-743.652,45.410,51.758,11.719
1701222362.287,41.992,-555.176,42.969,55.176,41.016
1701222362.291,68.359,-717.773,46.387,8.789,-12.695
1701222362.295,27.832,-1000.000,50.781,-3.906,-80.078
1701222362.298,-16.113,-719.727,45.898,44.922,-8.301
1701222362.302,15.625,-265.137,42.969,64.941,92.285
1701222362.306,52.734,-451.660,41.992,24.414,36.621
1701222362.310,36.133,-878.906,39.062,-7.812,-59.570
1701222362.314,7.324,-891.113,40.527,27.832,-37.109
1701222362.301,14.648,-403.809,39.551,63.965,54.688
1701222362.305,50.293,-402.832,41.016,38.086,29.785
1701222362.309,67.383,-774.414,42.969,15.137,-33.203
1701222362.313,28.809,-670.410,40.527,24.414,-22.461
1701222362.317,-6.348,-292.480,40.039,61.523,47.852
1701222362.321,29.297,-436.523,40.039,54.688,71.777
1701222362.325,54.199,-854.004,42.480,5.859,-0.977
1701222362.328,19.043,-823.730,42.480,6.348,-47.852
1701222362.332,8.789,-363.770,37.598,49.316,49.316
1701222362.336,42.969,-290.527,36.133,57.129,114.258
1701222362.340,62.500,-856.934,40.039,7.324,-4.395
1701222362.344,41.992,-930.664,40.039,0.488,-52.246
1701222362.391,10.742,-493.164,37.109,48.828,21.973
1701222362.395,15.137,-371.094,39.062,59.570,76.172
1701222362.399,59.570,-831.543,44.434,15.137,0.488
1701222362.403,62.988,-965.820,42.480,-11.230,-57.617
1701222362.407,11.230,-603.516,39.551,31.250,-2.441
1701222362.411,2.441,-530.762,43.945,69.336,45.410
1701222362.415,41.504,-850.586,46.387,47.363,37.109
1701222362.418,62.988,-931.641,44.922,4.883,-25.391
1701222362.422,32.227,-687.012,42.969,16.602,-23.438
1701222362.426,-2.930,-439.941,40.527,68.359,54.199
1701222362.430,41.504,-439.941,39.062,52.734,74.707
1701222362.434,62.012,-643.066,37.598,-1.953,21.484
1701222362.396,6.836,-795.898,37.109,-0.488,-7.324
1701222362.400,-8.789,-687.012,36.133,40.527,25.391
1701222362.404,24.902,-485.352,35.645,33.203,55.176
1701222362.408,51.758,-579.590,37.109,-6.348,38.574
1701222362.412,32.227,-777.832,39.551,-7.812,-7.324
1701222362.416,12.695,-758.301,39.062,43.945,0.977
1701222362.420,7.812,-539.062,35.645,69.336,84.961
1701222362.423,29.297,-540.039,36.621,19.043,69.336
1701222362.427,49.805,-835.449,38.086,-12.695,-32.715
1701222362.431,23.438,-812.988,36.133,14.648,-22.461
1701222362.435,11.230,-408.203,35.645,47.363,72.754
1701222362.439,36.133,-377.930,35.645,38.574,78.613
1701222362.451,38.574,-771.484,39.062,5.371,-5.859
1701222362.455,17.090,-932.129,38.086,14.160,-60.059
1701222362.459,4.883,-496.582,38.086,57.129,26.367
1701222362.463,26.367,-429.688,42.480,56.152,69.336
1701222362.467,42.480,-862.305,39.551,7.324,-21.484
1701222362.471,26.367,-986.816,39.062,-14.160,-62.012
1701222362.475,6.348,-966.797,37.109,42.480,-2.441
1701222362.478,20.020,-571.289,29.785,60.059,71.777
1701222362.482,61.035,-563.477,30.762,4.395,47.363
1701222362.486,47.363,-818.359,33.203,-6.836,-13.184
1701222362.490,2.441,-479.004,34.668,36.133,20.996
1701222362.494,5.371,-217.285,34.180,54.688,71.777
1701222362.496,41.504,-485.840,32.227,26.367,48.828
1701222362.500,54.688,-754.883,32.715,0.977,0.000
1701222362.504,20.508,-570.801,33.691,30.273,-1.465
1701222362.508,1.953,-250.488,32.227,68.848,68.359
1701222362.512,46.387,-366.211,32.715,48.340,72.266
1701222362.516,58.105,-813.477,35.156,10.742,-9.277
1701222362.520,16.113,-855.957,38.086,14.648,-25.879
1701222362.523,0.977,-510.254,37.109,61.035,40.527
1701222362.527,39.062,-622.559,35.156,60.059,47.363
1701222362.531,61.035,-983.398,37.598,0.488,-47.852
1701222362.535,30.762,-773.438,37.109,1.953,-53.223
1701222362.539,14.160,-464.355,33.691,52.246,17.578
1701222362.556,50.781,-384.277,29.297,62.500,47.363
1701222362.560,68.848,-516.602,30.273,26.367,27.344
1701222362.564,38.574,-695.312,31.250,6.348,-14.648
1701222362.568,-8.789,-660.156,30.762,41.016,-14.160
1701222362.572,-15.625,-380.859,33.691,68.848,78.125
1701222362.576,35.645,-549.805,34.668,43.945,69.824
1701222362.580,49.805,-914.551,35.645,8.301,-23.438
1701222362.583,10.742,-844.727,34.668,29.297,-7.812
1701222362.587,3.418,-603.027,35.645,66.895,59.082
1701222362.591,42.480,-530.273,35.156,59.082,67.383
1701222362.595,56.641,-758.789,34.668,11.719,0.000
1701222362.599,6.836,-915.527,37.109,6.836,-26.367
1701222362.587,-22.461,-881.348,36.133,48.340,12.695
1701222362.591,30.762,-534.180,33.203,38.574,68.359
1701222362.595,54.199,-636.230,31.738,1.465,33.691
1701222362.599,3.906,-882.324,31.250,-14.648,-14.648
1701222362.603,-4.395,-654.297,33.691,34.668,14.160
1701222362.607,24.902,-494.141,32.715,66.895,62.500
1701222362.611,41.992,-739.746,27.344,20.996,60.547
1701222362.614,39.551,-991.211,25.879,-7.324,-38.086
1701222362.618,9.766,-765.625,30.273,19.531,-35.645
1701222362.622,10.742,-359.375,28.320,60.547,69.824
1701222362.626,54.688,-496.582,32.715,61.035,64.941
1701222362.630,50.781,-944.824,43.945,18.066,-44.922
1701222362.646,-4.395,-916.016,36.621,21.973,-61.035
1701222362.650,-3.906,-422.363,31.738,54.688,61.035
1701222362.654,44.434,-438.477,35.156,54.199,78.613
1701222362.658,57.129,-947.754,35.645,18.555,-26.367
1701222362.662,31.738,-874.023,35.156,-4.395,-31.250
1701222362.666,23.438,-542.969,34.668,45.410,54.688
1701222362.670,45.898,-637.207,33.691,62.012,66.406
1701222362.673,62.012,-967.285,35.645,30.762,-10.254
1701222362.677,45.410,-923.340,35.645,8.301,-34.180
1701222362.681,10.254,-502.441,29.785,34.180,50.293
1701222362.685,12.207,-366.699,28.320,62.500,92.773
1701222362.689,40.527,-674.316,34.180,37.598,31.738
1701222362.691,53.223,-849.609,35.156,22.949,-32.227
1701222362.695,27.344,-684.570,31.250,34.180,-20.996
1701222362.699,12.207,-391.602,34.668,62.988,80.566
1701222362.703,60.059,-542.969,34.668,54.199,71.289
1701222362.707,73.730,-815.430,32.715,9.766,-23.926
1701222362.711,38.086,-810.059,36.621,26.367,-9.277
1701222362.715,19.043,-677.246,36.133,67.871,41.016
1701222362.718,54.199,-525.879,31.738,45.410,54.199
1701222362.722,78.613,-611.328,32.227,5.859,29.297
1701222362.726,40.039,-706.543,33.691,15.137,-14.648
1701222362.730,8.789,-783.691,33.691,60.547,11.719
1701222362.734,32.715,-693.848,33.203,54.199,42.969
1701222362.721,62.500,-531.250,33.691,9.766,26.367
1701222362.725,56.641,-759.277,33.203,9.766,-12.207
1701222362.729,27.344,-679.199,30.762,40.527,-15.137
1701222362.733,34.668,-316.895,27.832,56.641,40.039
1701222362.737,72.754,-371.094,26.855,34.180,53.711
1701222362.741,70.312,-799.805,27.832,2.930,5.859
1701222362.745,30.762,-889.648,28.320,33.203,-25.879
1701222362.748,19.531,-513.672,29.297,73.242,35.645
1701222362.752,49.316,-387.695,29.785,45.898,70.801
1701222362.756,51.758,-727.539,32.227,1.465,-24.414
1701222362.760,7.812,-1000.000,33.203,8.301,-92.773
1701222362.764,12.695,-650.879,29.297,56.152,-5.371
1701222362.781,38.574,-261.719,24.414,63.477,60.547
1701222362.785,51.270,-581.543,29.785,17.578,12.695
1701222362.789,44.434,-735.352,31.738,9.277,-28.809
1701222362.793,22.949,-415.527,29.785,54.199,7.812
1701222362.797,44.922,-213.867,31.738,65.430,56.152
1701222362.801,59.082,-614.258,33.203,19.531,-0.488
1701222362.805,34.180,-947.266,30.273,-11.719,-65.430
1701222362.808,-5.371,-535.645,29.297,23.926,0.000
1701222362.812,3.906,-144.043,33.203,58.594,78.613
1701222362.816,36.621,-614.746,32.227,20.508,20.508
1701222362.820,47.363,-939.941,30.273,-7.324,-51.758
1701222362.824,28.320,-519.531,28.809,23.926,-4.883
1701222362.826,5.371,-227.051,26.367,57.129,70.312
1701222362.830,39.062,-552.246,30.273,40.527,46.875
1701222362.834,51.270,-799.805,29.785,-6.348,-23.926
1701222362.838,1.953,-607.422,25.879,-3.906,-25.879
1701222362.842,-11.230,-418.945,26.367,40.527,23.926
1701222362.846,24.414,-416.992,30.273,54.199,72.266
1701222362.850,41.504,-682.617,37.598,28.809,33.203
1701222362.853,42.480,-720.215,34.180,15.137,-15.137
1701222362.857,29.785,-604.004,32.715,48.340,-3.418
1701222362.861,16.113,-683.594,36.133,67.871,27.832
1701222362.865,40.039,-596.191,34.180,36.133,41.016
1701222362.869,41.016,-757.812,36.621,6.348,-22.949
1701222362.871,4.395,-939.453,36.621,29.297,-56.641
1701222362.875,10.742,-611.816,30.762,66.895,-0.977
1701222362.879,56.641,-472.168,31.738,43.457,25.391
1701222362.883,44.922,-769.043,34.180,11.719,-23.926
1701222362.887,-8.789,-811.035,29.297,29.297,-27.832
1701222362.891,-18.066,-550.293,26.367,61.523,51.270
1701222362.895,14.648,-555.664,31.250,52.734,73.242
1701222362.898,45.410,-845.215,32.715,5.859,8.301
1701222362.902,14.160,-1000.000,30.273,-8.301,-70.801
1701222362.906,-3.906,-738.770,29.785,36.133,-12.695
1701222362.910,26.367,-338.379,30.273,53.711,78.125
1701222362.914,30.273,-595.703,32.715,16.113,41.504
1701222362.917,11.230,-891.113,32.715,2.441,-16.113
1701222362.921,1.953,-565.918,29.785,36.133,19.531
1701222362.925,16.602,-358.887,30.762,67.383,68.359
1701222362.929,46.875,-694.336,35.156,41.992,36.621
1701222362.933,45.898,-957.031,35.156,17.578,-26.367
1701222362.937,12.207,-822.754,34.180,40.039,-19.531
1701222362.941,7.812,-531.250,30.762,51.758,54.688
1701222362.944,48.340,-659.180,30.762,41.992,56.152
1701222362.948,59.570,-1000.000,31.738,8.301,-46.875
1701222362.952,0.000,-808.105,26.855,10.254,-44.434
1701222362.956,-12.207,-409.180,25.879,53.711,45.410
1701222362.960,42.969,-475.098,26.855,55.176,54.688
1701222362.960,75.195,-813.965,26.367,12.207,-3.906
1701222362.964,28.320,-877.441,24.902,-7.812,-41.992
1701222362.968,0.977,-584.961,23.926,34.668,18.066
1701222362.972,43.457,-486.328,24.902,75.195,67.383
1701222362.976,74.219,-735.840,27.832,39.062,37.109
1701222362.980,43.457,-988.281,31.738,8.789,-49.805
1701222362.984,10.742,-874.023,29.785,41.992,-20.508
1701222362.987,26.367,-794.434,27.344,77.148,55.176
1701222362.991,67.383,-957.031,31.250,53.223,10.742
1701222362.995,63.965,-880.859,28.809,11.230,-12.207
1701222362.999,16.113,-682.617,27.832,32.715,20.508
1701222363.003,10.254,-435.059,29.297,76.172,72.754
1701222363.005,45.898,-367.676,27.832,62.500,87.402
1701222363.009,50.293,-646.484,26.367,13.672,15.625
1701222363.013,12.695,-787.598,29.297,13.184,-21.484
1701222363.017,5.371,-508.301,28.809,65.430,36.133
1701222363.021,44.434,-242.676,25.879,66.406,102.051
1701222363.025,67.871,-644.531,30.273,3.906,25.879
1701222363.029,43.945,-1000.000,31.250,-11.719,-51.270
1701222363.032,24.902,-811.523,27.344,46.387,7.324
1701222363.036,35.156,-456.055,25.879,75.195,56.152
1701222363.040,51.758,-523.926,24.414,47.852,32.227
1701222363.044,62.500,-785.645,24.414,28.809,-12.207
1701222363.048,43.457,-622.559,25.391,43.457,-4.395
1701222363.065,18.555,-217.773,26.367,57.617,59.082
1701222363.069,35.645,-263.672,26.367,40.039,83.008
1701222363.073,38.574,-763.184,27.832,-0.977,-13.184
1701222363.077,13.184,-751.465,29.785,18.555,-33.203
1701222363.081,12.695,-259.766,32.715,58.594,43.457
1701222363.085,27.832,-369.629,37.598,51.758,61.523
1701222363.089,44.922,-847.656,36.621,13.184,-20.020
1701222363.092,24.902,-859.375,28.809,6.348,-78.125
1701222363.096,14.160,-307.617,23.926,49.805,29.297
1701222363.100,46.875,-162.598,24.414,68.359,86.914
1701222363.104,62.988,-558.105,28.320,37.109,26.367
1701222363.108,34.180,-773.926,31.250,16.602,-4.883
1701222363.112,11.230,-514.160,28.320,52.734,27.344
1701222363.116,22.461,-256.348,27.832,74.219,84.473
1701222363.120,44.922,-523.438,32.227,47.363,67.383
1701222363.124,48.340,-737.793,33.691,10.254,-6.836
1701222363.128,23.438,-530.762,32.227,35.156,1.465
1701222363.132,9.766,-440.430,32.227,88.379,59.082
1701222363.136,46.387,-703.613,33.691,61.035,37.598
1701222363.139,76.660,-787.109,32.715,12.207,-19.043
1701222363.143,27.344,-623.047,31.250,27.832,-25.879
1701222363.147,11.230,-497.070,34.180,70.801,29.785
1701222363.151,51.758,-669.922,33.691,65.430,39.551
1701222363.155,53.711,-747.559,34.668,25.879,-16.602
1701222363.156,18.555,-716.309,37.109,13.672,-37.109
1701222363.160,3.906,-494.629,30.273,46.875,20.020
1701222363.164,27.344,-428.223,31.250,69.824,67.871
1701222363.168,65.918,-649.902,31.250,26.855,30.762
1701222363.172,36.133,-729.492,30.762,10.742,0.488
1701222363.176,-7.812,-674.316,32.715,54.199,29.785
1701222363.180,12.695,-532.227,30.762,78.125,76.172
1701222363.183,46.875,-562.988,30.762,52.734,56.152
1701222363.187,41.504,-724.121,32.715,29.785,5.859
1701222363.191,12.695,-947.266,33.203,37.598,-27.832
1701222363.195,17.090,-789.551,30.273,59.570,23.438
1701222363.199,54.199,-454.102,32.715,41.992,64.453
1701222363.201,49.805,-739.746,34.668,0.000,1.953
1701222363.205,1.953,-810.547,30.762,6.348,-5.371
1701222363.209,-2.930,-396.973,30.273,58.105,62.988
1701222363.213,40.527,-301.270,30.273,60.059,90.820
1701222363.217,48.828,-714.844,27.344,4.395,6.348
1701222363.221,19.531,-989.746,25.879,-2.441,-62.012
1701222363.225,-0.488,-721.191,26.855,40.039,4.883
1701222363.228,7.324,-464.844,23.926,52.246,66.895
1701222363.232,43.457,-706.055,25.391,18.066,38.574
1701222363.236,44.434,-927.246,30.273,-4.395,-6.836
1701222363.240,-4.395,-645.020,27.832,28.809,-5.371
1701222363.244,8.301,-261.230,24.902,68.359,79.102
1701222363.246,62.012,-545.410,28.809,39.551,62.988
1701222363.250,54.688,-1000.000,33.203,9.277,-52.246
1701222363.254,-3.418,-773.438,28.320,27.832,-26.855
1701222363.258,-15.625,-380.859,26.855,47.363,48.828
1701222363.262,23.926,-428.711,27.832,30.762,79.590
1701222363.266,30.273,-843.750,28.809,0.000,9.766
1701222363.270,16.113,-971.680,22.949,8.789,-45.410
1701222363.273,11.719,-568.848,20.996,47.363,36.133
1701222363.277,32.715,-577.148,29.785,39.551,68.848
1701222363.281,44.434,-862.305,29.297,0.000,10.254
1701222363.285,14.160,-750.000,23.926,-5.859,-7.812
1701222363.289,1.465,-461.426,24.414,24.414,53.223
1701222363.291,12.695,-638.672,28.320,53.223,51.758
1701222363.295,41.016,-885.742,30.762,31.250,-11.230
1701222363.299,35.645,-793.945,26.855,-5.371,-39.551
1701222363.303,0.488,-684.570,25.879,-4.395,-15.137
1701222363.307,8.301,-433.594,26.855,42.969,49.805
1701222363.311,35.156,-554.199,25.879,25.879,52.246
1701222363.315,41.016,-918.457,27.832,-18.555,-37.598
1701222363.318,20.508,-950.684,27.344,15.625,-59.082
1701222363.322,-1.465,-795.410,26.367,49.805,17.090
1701222363.326,26.367,-487.793,25.879,42.480,73.242
1701222363.330,51.758,-561.523,25.879,-2.441,30.273
1701222363.334,14.648,-916.016,30.273,-1.953,-37.109
1701222363.337,-9.277,-645.508,30.273,48.828,12.695
1701222363.341,29.785,-245.117,22.461,59.082,83.496
1701222363.345,54.199,-544.922,22.949,17.578,24.414
1701222363.349,23.926,-858.887,26.855,-2.930,-42.969
1701222363.353,2.930,-617.676,22.949,36.133,-2.930
1701222363.357,42.480,-428.711,25.879,64.941,49.316
1701222363.361,80.566,-685.059,29.297,35.645,38.086
1701222363.364,42.480,-989.746,32.227,-11.719,-35.156
1701222363.368,4.883,-769.531,27.344,13.672,-8.789
1701222363.372,13.184,-264.160,21.484,50.293,93.750
1701222363.376,42.969,-396.484,23.438,24.414,72.754
1701222363.380,46.875,-914.551,23.926,0.000,-26.367
1701222363.396,18.555,-807.617,22.461,12.695,-21.973
1701222363.400,25.391,-353.027,23.438,50.781,59.082
1701222363.404,59.082,-484.863,22.949,62.012,77.637
1701222363.408,53.223,-887.695,24.902,26.855,15.137
1701222363.412,7.812,-897.949,24.414,15.625,-51.758
1701222363.416,-2.930,-621.094,19.531,49.805,18.555
1701222363.420,21.484,-589.355,18.555,53.711,80.078
1701222363.423,48.828,-938.477,21.484,1.953,-13.672
1701222363.427,42.480,-915.039,18.555,-16.113,-47.852
1701222363.431,11.230,-496.094,16.113,30.762,37.598
1701222363.435,13.672,-291.016,18.066,62.988,100.098
1701222363.439,35.645,-481.934,21.973,27.832,79.590
1701222363.426,56.641,-756.836,24.902,13.672,-8.789
1701222363.430,23.438,-629.395,20.508,17.578,1.953
1701222363.434,1.953,-405.762,19.043,38.086,57.129
1701222363.438,41.016,-479.004,24.414,43.945,55.176
1701222363.442,41.016,-655.273,24.414,6.836,34.180
1701222363.446,4.883,-806.641,23.926,20.020,8.301
1701222363.450,7.324,-664.551,19.531,61.523,45.898
1701222363.453,49.316,-459.473,18.555,53.711,71.777
1701222363.457,55.664,-627.441,24.902,16.113,19.531
1701222363.461,13.184,-716.797,25.391,4.883,-2.930
1701222363.465,-0.977,-858.887,24.902,40.039,-9.766
1701222363.469,18.555,-824.707,23.926,60.059,13.184
1701222363.470,40.039,-585.938,23.438,30.762,31.738
1701222363.474,34.180,-810.059,20.020,11.719,-18.066
1701222363.478,12.695,-734.863,17.090,43.457,-7.812
1701222363.482,24.902,-310.059,19.531,67.871,68.848
1701222363.486,55.664,-380.371,24.414,48.340,69.336
1701222363.490,58.105,-854.492,28.809,13.672,-11.719
1701222363.494,15.625,-939.941,29.785,30.762,-31.250
1701222363.497,23.438,-455.566,23.926,57.129,55.664
1701222363.501,42.969,-372.070,25.391,36.621,81.055
1701222363.505,35.156,-796.875,28.320,7.812,-1.465
1701222363.509,13.672,-870.605,30.273,11.230,-36.133
1701222363.513,-2.930,-463.379,30.273,46.875,45.410
1701222363.530,20.996,-287.109,26.855,57.129,88.867
1701222363.534,58.594,-608.887,27.832,30.273,45.898
1701222363.538,46.387,-814.941,27.344,12.207,-14.648
1701222363.542,-1.465,-502.930,25.879,44.434,17.578
1701222363.546,4.395,-234.375,25.879,64.453,93.262
1701222363.550,40.039,-665.527,27.344,23.926,33.203
1701222363.554,39.551,-999.512,24.414,3.906,-45.898
1701222363.557,17.090,-659.180,20.996,40.039,-11.230
1701222363.561,27.344,-302.246,25.391,68.848,64.453
1701222363.565,56.152,-620.605,28.320,47.852,62.988
1701222363.569,52.246,-1000.000,29.785,3.418,-29.785
1701222363.573,11.719,-831.055,31.250,12.695,-43.945
1701222363.576,10.254,-481.934,31.250,62.500,47.363
1701222363.580,41.992,-596.680,31.250,58.105,51.270
1701222363.584,40.527,-804.688,29.785,18.555,2.930
1701222363.588,4.883,-786.133,27.832,20.996,-17.578
1701222363.592,0.977,-589.844,29.297,57.129,31.250
1701222363.596,30.762,-590.332,29.297,65.918,66.406
1701222363.600,55.664,-865.234,25.879,18.066,26.855
1701222363.603,32.227,-931.152,23.926,-10.742,-23.926
1701222363.607,-10.742,-813.965,24.414,22.949,-1.953
1701222363.611,6.836,-798.340,21.973,50.781,60.059
1701222363.615,40.039,-757.812,19.043,25.879,43.945
1701222363.619,55.176,-887.207,23.926,-1.465,-11.719
1701222363.622,26.367,-840.820,25.879,20.020,9.277
1701222363.626,-1.953,-543.457,26.367,63.965,87.402
1701222363.630,47.363,-713.867,33.203,77.637,64.941
1701222363.634,72.266,-999.023,35.156,45.898,-10.254
1701222363.638,-0.977,-964.844,29.297,17.578,-18.555
1701222363.642,-26.855,-798.828,25.391,53.223,33.691
1701222363.646,26.855,-742.676,20.996,60.547,67.871
1701222363.649,45.898,-914.551,18.066,25.391,45.410
1701222363.653,29.297,-983.398,16.602,30.273,-5.371
1701222363.657,18.555,-714.844,10.254,46.387,22.949
1701222363.661,17.090,-469.238,5.859,48.828,100.098
1701222363.665,40.039,-742.188,6.836,26.855,41.992
1701222363.665,28.320,-1000.000,8.301,-4.883,-45.410
1701222363.669,6.836,-813.477,4.883,8.789,0.000
1701222363.673,29.297,-409.668,-1.953,37.598,110.352
1701222363.677,62.500,-611.328,-2.441,20.020,90.332
1701222363.681,42.480,-996.094,2.441,-13.672,-16.113
1701222363.685,9.277,-958.984,1.953,2.930,-21.973
1701222363.689,14.648,-722.168,0.488,36.621,45.410
1701222363.692,18.555,-733.398,1.953,26.855,79.590
1701222363.696,25.879,-989.258,3.906,-13.672,-1.953
1701222363.700,8.301,-916.992,2.441,-18.555,-53.223
1701222363.704,15.625,-492.676,-2.441,32.227,48.340
1701222363.708,62.500,-396.973,-3.418,49.805,113.770
1701222363.726,85.449,-741.699,-0.488,11.230,38.574
1701222363.730,35.645,-783.203,6.836,-8.789,6.836
1701222363.734,-17.578,-503.418,6.348,22.461,58.105
1701222363.738,8.789,-402.832,4.395,51.270,89.844
1701222363.742,40.527,-627.930,5.859,30.762,58.105
1701222363.746,19.531,-926.270,10.742,9.277,-2.441
1701222363.750,4.883,-794.434,8.301,44.434,27.344
1701222363.753,24.902,-708.496,6.348,61.035,73.730
1701222363.757,41.016,-917.480,11.230,31.738,42.480
1701222363.761,56.152,-820.312,13.184,-4.395,13.672
1701222363.765,54.688,-675.781,17.090,33.203,15.137
1701222363.769,30.762,-429.199,18.066,91.797,87.402
1701222363.755,44.922,-334.473,20.020,73.730,130.371
1701222363.759,57.617,-620.605,21.484,24.414,60.059
1701222363.763,33.691,-771.484,18.555,17.090,29.785
1701222363.767,13.672,-543.945,16.602,59.570,81.055
1701222363.771,33.203,-361.328,19.043,56.641,111.328
1701222363.775,43.945,-698.730,23.926,24.902,64.453
1701222363.779,9.766,-1000.000,22.949,19.531,18.066
1701222363.782,-10.742,-720.215,19.043,41.992,63.965
1701222363.786,-0.977,-299.805,19.043,60.547,132.812
1701222363.790,19.043,-461.914,21.484,40.527,107.910
1701222363.794,22.949,-855.469,24.902,3.906,6.836
1701222363.798,0.000,-977.539,25.879,25.391,-6.348
1701222363.817,16.602,-539.551,22.949,64.941,98.633
1701222363.821,59.570,-395.508,22.949,43.945,102.051
1701222363.825,60.059,-770.508,26.855,14.160,41.504
1701222363.829,28.320,-709.473,28.809,32.715,45.410
1701222363.833,29.785,-335.449,25.879,81.055,103.516
1701222363.837,62.012,-444.824,22.461,67.383,115.723
1701222363.841,77.637,-887.207,28.320,22.949,42.969
1701222363.844,29.297,-886.719,31.738,8.789,15.137
1701222363.848,-12.695,-432.617,25.879,40.527,75.195
1701222363.852,10.254,-248.047,26.855,68.359,126.465
1701222363.856,37.598,-601.562,28.320,28.320,67.383
1701222363.860,34.668,-763.184,27.344,12.207,8.789
1701222363.847,1.465,-429.688,29.785,53.711,70.312
1701222363.851,7.812,-337.402,27.832,78.613,115.723
1701222363.855,50.293,-622.559,26.367,39.062,79.102
1701222363.859,39.551,-782.715,28.320,-6.836,19.531
1701222363.863,-14.160,-612.305,28.809,29.785,41.504
1701222363.867,-20.020,-513.672,28.809,66.406,104.004
1701222363.871,37.109,-683.594,28.320,37.598,91.309
1701222363.874,56.641,-761.719,29.297,-0.488,60.059
1701222363.878,11.719,-709.961,26.855,22.461,33.691
1701222363.882,-22.949,-662.598,25.391,74.219,46.875
1701222363.886,12.207,-883.789,26.367,74.219,65.430
1701222363.890,67.383,-985.352,25.879,24.902,13.184
1701222363.905,50.293,-847.656,17.090,16.113,7.812
1701222363.909,22.461,-640.137,17.578,59.570,56.152
1701222363.913,36.621,-437.988,23.926,72.266,117.188
1701222363.917,70.312,-588.867,23.926,9.277,81.543
1701222363.921,46.387,-857.910,27.832,-15.625,16.113
1701222363.925,9.277,-983.398,32.715,30.273,31.250
1701222363.929,20.020,-785.156,36.621,64.453,93.262
1701222363.932,35.156,-593.262,35.156,54.688,75.195
1701222363.936,49.805,-864.258,35.645,10.254,-8.789
1701222363.940,7.812,-880.371,37.109,36.133,-10.254
1701222363.944,-18.066,-519.531,34.668,85.938,63.477
1701222363.948,27.344,-481.445,33.691,76.172,77.148
1701222363.965,45.410,-804.199,34.180,30.762,11.719
1701222363.969,24.902,-852.051,35.156,25.879,-6.348
1701222363.973,11.719,-482.910,36.621,80.078,55.664
1701222363.977,31.738,-375.000,33.691,71.289,73.730
1701222363.981,57.617,-739.258,30.762,9.766,1.953
1701222363.985,38.574,-1000.000,30.273,0.977,-62.988
1701222363.989,-14.648,-838.379,26.855,47.363,-26.367
1701222363.992,11.719,-627.930,25.879,76.660,55.176
1701222363.996,64.453,-774.414,30.273,29.297,34.180
1701222364.000,38.574,-1000.000,32.715,-10.742,-57.129
1701222364.004,9.277,-797.363,30.762,31.738,-24.902
1701222364.008,-2.441,-404.785,29.785,75.684,63.477
1701222364.026,21.973,-602.539,33.203,45.898,41.504
1701222364.030,41.504,-957.031,38.574,5.371,-35.645
1701222364.034,12.695,-836.914,35.156,32.715,-25.391
1701222364.038,0.000,-493.164,32.715,77.637,64.941
1701222364.042,25.391,-587.891,35.156,51.270,90.820
1701222364.046,43.457,-941.406,35.156,1.953,-7.324
1701222364.050,16.113,-975.098,35.645,-7.324,-51.758
1701222364.053,-5.859,-755.371,34.668,41.504,32.715
1701222364.057,19.043,-665.527,31.250,65.918,74.707
1701222364.061,51.270,-818.848,29.297,14.648,49.316
1701222364.065,20.020,-974.121,30.273,-27.344,-11.719
1701222364.069,-4.395,-861.816,26.855,20.508,2.930
1701222364.056,17.090,-840.820,23.438,56.641,43.945
1701222364.060,55.176,-988.281,25.391,8.301,19.531
1701222364.064,59.570,-962.402,25.879,-38.086,-11.230
1701222364.068,25.391,-913.086,24.414,-2.441,-15.625
1701222364.072,0.977,-696.777,20.996,35.156,32.227
1701222364.076,28.809,-754.395,23.438,5.371,40.527
1701222364.080,40.527,-978.027,29.785,-24.414,-30.273
1701222364.083,-8.301,-996.094,32.227,-16.602,-27.344
1701222364.087,-10.742,-726.562,28.809,22.949,53.711
1701222364.091,29.297,-510.254,25.879,22.949,77.148
1701222364.095,65.430,-789.551,29.297,-20.020,16.113
1701222364.099,55.176,-1000.000,29.297,-25.879,-43.945
1701222364.087,6.836,-690.430,24.902,24.414,39.062
1701222364.091,14.160,-512.207,23.926,54.688,96.191
1701222364.095,73.730,-789.062,28.320,-5.371,28.320
1701222364.099,56.152,-950.195,33.691,-24.902,-43.457
1701222364.103,-0.977,-933.594,27.832,29.785,-43.945
1701222364.107,13.672,-768.066,24.414,42.480,31.738
1701222364.111,55.176,-836.426,26.367,-13.672,25.391
1701222364.114,49.805,-1000.000,27.344,-48.340,-56.641
1701222364.118,-30.273,-847.656,33.203,-26.855,-21.973
1701222364.122,-54.199,-547.363,35.645,-11.230,89.844
1701222364.126,-24.902,-704.102,34.668,-41.504,82.031
1701222364.130,-32.715,-974.121,42.480,-89.844,-18.066
1701222364.130,-74.219,-986.816,50.293,-91.797,-57.129
1701222364.134,-112.305,-829.102,44.434,-69.824,29.785
1701222364.138,-85.449,-810.059,46.875,-83.984,62.988
1701222364.142,-56.152,-975.586,44.922,-128.418,3.906
1701222364.146,-120.117,-977.051,48.340,-157.227,-51.270
1701222364.150,-195.801,-954.590,53.711,-149.902,-6.348
1701222364.154,-191.406,-953.613,51.270,-133.301,57.129
1701222364.157,-166.504,-964.355,57.617,-196.289,-18.066
1701222364.161,-188.965,-986.816,56.641,-265.137,-75.195
1701222364.165,-247.559,-909.180,45.898,-231.934,-18.555
1701222364.169,-266.113,-765.625,37.598,-229.004,54.199
1701222364.173,-226.074,-863.770,41.016,-268.066,46.875
1701222364.191,-217.285,-987.793,43.457,-292.480,-27.832
1701222364.195,-252.441,-929.688,39.062,-270.020,-40.527
1701222364.199,-276.855,-722.168,36.621,-210.938,33.691
1701222364.203,-222.168,-678.223,43.457,-200.684,45.410
1701222364.207,-170.410,-889.648,49.316,-228.027,-30.273
1701222364.211,-185.547,-924.805,48.828,-196.777,-40.039
1701222364.215,-198.730,-842.285,50.293,-125.488,20.508
1701222364.218,-126.953,-731.445,54.199,-113.281,62.012
1701222364.222,-56.641,-577.637,50.293,-135.742,41.504
1701222364.226,-62.988,-665.039,45.898,-121.094,-25.879
1701222364.230,-81.055,-603.516,42.480,-38.086,-17.578
1701222364.234,-36.621,-224.609,41.016,7.324,96.680
1701222364.235,43.457,-275.391,40.039,-25.391,74.219
1701222364.239,51.270,-641.113,35.645,-13.184,-30.762
1701222364.243,20.020,-511.230,29.785,57.129,0.488
1701222364.247,21.973,-154.785,31.250,89.355,60.059
1701222364.251,101.562,-239.746,34.668,93.262,35.156
1701222364.255,151.855,-653.809,37.109,96.191,-13.184
1701222364.259,108.398,-625.977,33.691,110.840,-3.418
1701222364.262,110.840,-159.668,24.902,175.293,58.594
1701222364.266,168.945,-125.000,24.414,192.383,65.430
1701222364.270,194.824,-597.656,31.738,162.598,-11.230
1701222364.274,178.223,-1000.000,32.227,169.922,-82.031
1701222364.278,154.297,-494.629,23.438,213.379,18.555
1701222364.296,181.152,-39.551,20.020,235.352,94.238
1701222364.300,227.539,-427.246,17.090,189.941,16.602
1701222364.304,213.379,-646.973,15.137,177.246,-38.086
1701222364.308,188.477,-310.547,12.695,213.867,16.113
1701222364.312,200.195,-24.902,9.277,224.609,91.309
1701222364.316,216.309,-365.234,10.254,189.453,59.082
1701222364.320,211.914,-771.484,12.207,167.480,-24.414
1701222364.323,186.523,-519.531,9.766,177.246,-16.113
1701222364.327,171.387,-111.816,8.301,187.988,63.477
1701222364.331,193.848,-418.945,10.254,174.316,57.617
1701222364.335,184.082,-814.453,10.742,129.395,-48.340
1701222364.339,129.883,-552.246,8.301,133.789,-43.457
1701222364.358,108.887,-222.168,8.301,168.457,47.363
1701222364.362,143.066,-578.125,14.160,159.668,24.414
1701222364.366,159.668,-835.449,16.602,109.863,-33.203
1701222364.370,121.094,-599.121,14.160,96.191,-39.551
1701222364.374,86.914,-373.535,12.207,132.324,31.250
1701222364.378,102.051,-352.539,11.230,146.484,95.215
1701222364.382,126.465,-636.719,16.113,111.816,15.625
1701222364.385,113.770,-729.980,16.602,92.773,-67.383
1701222364.389,60.059,-610.352,15.137,108.398,-23.438
1701222364.393,55.664,-422.363,18.066,128.418,57.129
1701222364.397,120.117,-481.445,16.602,102.539,24.414
1701222364.401,120.605,-766.602,19.043,65.430,-53.223
1701222364.361,59.570,-836.914,22.461,78.613,-45.898
1701222364.365,45.898,-644.531,18.555,109.375,31.738
1701222364.369,91.309,-393.066,16.113,91.797,57.617
1701222364.373,106.445,-637.207,18.555,51.758,-9.277
1701222364.377,61.523,-860.840,18.555,74.219,-48.828
1701222364.381,44.922,-609.863,20.508,112.793,10.742
1701222364.385,69.824,-408.691,20.508,92.773,74.219
1701222364.388,98.145,-776.855,20.996,59.570,-21.973
1701222364.392,71.777,-961.914,22.949,43.457,-99.609
1701222364.396,33.691,-617.188,20.508,76.172,-5.859
1701222364.400,47.363,-431.641,19.531,106.934,50.781
1701222364.404,80.078,-710.938,20.020,58.105,-5.371
1701222364.415,71.289,-978.516,20.508,33.691,-72.754
1701222364.419,27.832,-773.438,21.973,65.430,-38.086
1701222364.423,20.508,-434.082,25.391,78.125,45.410
1701222364.427,49.805,-639.648,24.414,58.105,6.348
1701222364.431,54.688,-968.750,27.832,20.020,-82.520
1701222364.435,19.043,-1000.000,30.762,47.363,-75.195
1701222364.439,21.973,-630.371,23.926,98.633,26.855
1701222364.442,48.828,-500.488,23.926,75.195,55.176
1701222364.446,49.805,-781.250,27.344,34.668,-14.160
1701222364.450,23.926,-648.438,26.855,33.691,-24.414
1701222364.454,5.859,-309.570,28.320,62.500,31.250
1701222364.458,47.363,-438.477,31.738,71.289,41.504
1701222364.462,75.195,-902.344,36.133,25.391,-25.879
1701222364.466,18.066,-793.945,31.738,7.324,-38.086
1701222364.470,-25.879,-477.051,27.344,47.852,4.395
1701222364.474,8.301,-403.809,28.809,71.289,46.875
1701222364.478,35.156,-616.211,32.227,37.598,24.414
1701222364.482,27.344,-919.922,31.250,-4.395,-36.621
1701222364.486,-0.488,-772.949,26.855,15.137,-29.297
1701222364.489,-16.113,-668.945,27.344,50.781,11.719
1701222364.493,24.902,-840.332,29.785,29.785,-1.465
1701222364.497,58.594,-866.211,34.180,1.465,-59.082
1701222364.501,20.020,-888.672,36.621,22.949,-72.754
1701222364.505,0.977,-576.660,35.645,61.035,3.906
1701222364.523,37.598,-408.203,34.668,54.688,46.387
1701222364.527,41.992,-659.668,30.273,3.906,-29.785
1701222364.531,9.277,-843.262,33.203,2.441,-69.824
1701222364.535,-21.973,-648.438,34.180,51.758,-5.859
1701222364.539,-1.953,-369.141,29.297,50.781,48.828
1701222364.543,60.059,-657.715,28.320,16.602,5.859
1701222364.547,52.246,-1000.000,24.902,39.551,-63.965
1701222364.550,-19.043,-807.617,25.879,58.105,-36.621
1701222364.554,-26.367,-360.352,30.762,29.297,41.016
1701222364.558,17.578,-375.488,32.715,11.719,27.344
1701222364.562,10.254,-798.340,38.574,0.488,-46.875
1701222364.566,-41.992,-721.680,40.039,14.648,-45.410
1701222364.567,-13.184,-374.512,39.062,64.941,11.719
1701222364.571,54.688,-430.664,41.992,50.781,32.715
1701222364.575,44.922,-758.789,44.434,-5.859,-31.738
1701222364.579,-15.625,-887.695,42.969,5.859,-102.539
1701222364.583,-19.043,-374.023,35.156,50.293,5.371
1701222364.587,19.043,-379.883,34.180,53.223,48.340
1701222364.591,46.875,-867.188,41.992,13.672,-37.598
1701222364.594,13.672,-925.781,38.086,11.719,-54.199
1701222364.598,-27.344,-590.820,34.668,50.781,6.836
1701222364.602,13.672,-438.965,40.039,70.312,66.406
1701222364.606,36.621,-759.277,41.992,38.574,8.301
1701222364.610,13.672,-1000.000,42.480,14.648,-101.074
1701222364.597,-21.973,-672.363,37.598,53.711,-42.480
1701222364.601,-27.344,-326.660,37.109,81.055,71.777
1701222364.605,17.090,-539.551,41.016,55.176,62.012
1701222364.609,26.855,-914.062,43.457,12.695,-40.039
1701222364.613,11.230,-837.891,39.551,35.645,-20.996
1701222364.617,-16.602,-606.445,37.598,81.055,71.777
1701222364.621,32.227,-683.105,39.551,54.688,66.895
1701222364.624,77.637,-824.707,36.621,9.766,1.953
1701222364.628,15.625,-788.086,36.621,10.254,-17.090
1701222364.632,-33.691,-691.406,36.621,66.895,7.324
1701222364.636,2.930,-914.551,36.621,69.824,7.324
1701222364.640,32.227,-980.469,33.203,0.000,-28.809
1701222364.670,2.930,-937.012,32.715,0.488,-51.758
1701222364.674,-6.348,-789.551,33.691,48.828,10.742
1701222364.678,0.488,-648.438,35.156,55.176,55.664
1701222364.682,37.598,-828.125,37.598,24.902,20.508
1701222364.686,23.438,-987.305,41.016,-3.418,-35.156
1701222364.690,-33.691,-964.844,41.504,17.090,-31.250
1701222364.694,-32.715,-968.750,38.086,57.617,11.719
1701222364.697,19.043,-971.680,39.551,28.809,-9.766
1701222364.701,33.203,-968.262,42.480,-34.180,-59.082
1701222364.705,-20.996,-980.469,42.969,-21.973,-99.121
1701222364.709,-28.320,-930.176,40.527,25.879,-23.438
1701222364.713,31.250,-912.598,39.551,16.602,36.133
1701222364.701,35.645,-968.750,42.969,-11.230,-66.895
1701222364.705,-7.324,-991.211,43.457,-6.836,-101.074
1701222364.709,-16.602,-856.445,40.039,28.809,-9.766
1701222364.713,-0.488,-767.578,37.598,26.855,43.945
1701222364.717,34.180,-916.016,43.457,-28.320,-26.367
1701222364.721,19.531,-997.559,43.457,-51.758,-106.934
1701222364.725,-44.434,-909.668,39.062,-33.691,-47.852
1701222364.728,-38.574,-673.340,38.086,-9.766,23.926
1701222364.732,-23.926,-788.086,40.039,-44.434,-20.508
1701222364.736,-52.734,-1000.000,47.363,-102.051,-67.383
1701222364.740,-96.680,-860.840,50.293,-87.891,-42.480
1701222364.744,-97.168,-422.363,51.270,-64.941,33.203
1701222364.821,-64.941,-580.078,60.547,-91.797,16.113
1701222364.825,-62.500,-1000.000,65.918,-150.879,-73.730
1701222364.829,-111.816,-712.891,61.523,-136.230,-59.082
1701222364.833,-169.922,-184.082,62.500,-74.219,37.598
1701222364.837,-152.344,-154.297,64.453,-111.328,70.312
1701222364.841,-112.793,-566.895,65.918,-175.781,-3.418
1701222364.845,-168.945,-719.238,69.824,-179.199,-57.129
1701222364.848,-213.867,-283.691,70.312,-159.180,27.344
1701222364.852,-166.992,-172.852,75.195,-151.367,68.359
1701222364.856,-148.438,-497.559,79.102,-194.336,-16.113
1701222364.860,-172.363,-538.086,75.684,-219.727,-38.574
1701222364.864,-192.871,-372.559,76.660,-184.570,18.555
1701222364.898,-179.199,-332.520,80.078,-144.043,70.801
1701222364.902,-116.699,-437.500,76.172,-146.484,51.270
1701222364.906,-83.008,-579.102,71.777,-157.715,-30.273
1701222364.910,-122.559,-552.246,66.895,-113.281,-17.090
1701222364.914,-106.445,-347.168,58.594,-53.711,45.898
1701222364.918,-15.625,-457.031,59.082,-41.992,19.043
1701222364.922,12.695,-792.969,57.129,-50.781,-53.223
1701222364.925,-24.414,-869.141,50.293,-10.742,-71.777
1701222364.929,-18.555,-557.129,46.387,52.246,4.883
1701222364.933,51.270,-343.750,41.992,57.617,45.410
1701222364.937,72.754,-603.027,40.039,32.715,-19.531
1701222364.941,52.246,-881.348,40.039,58.594,-64.453
1701222364.901,16.113,-577.637,36.621,118.652,-9.277
1701222364.905,39.551,-88.379,27.832,139.160,71.777
1701222364.909,108.398,-235.840,25.391,100.098,52.734
1701222364.913,87.402,-791.504,26.367,62.500,-61.523
1701222364.917,41.992,-781.738,17.578,98.145,-71.289
1701222364.921,63.477,-294.922,14.648,132.324,31.250
1701222364.925,129.395,-483.887,16.602,112.793,17.090
1701222364.928,115.234,-884.277,13.672,87.891,-76.172
1701222364.932,58.105,-749.512,11.719,113.281,-62.012
1701222364.936,41.016,-323.242,7.812,135.742,32.227
1701222364.940,62.012,-395.020,8.789,109.375,21.484
1701222364.944,83.984,-791.992,10.742,80.078,-55.664
1701222364.927,47.852,-677.246,6.836,88.867,-39.551
1701222364.931,32.227,-299.316,8.789,117.676,7.324
1701222364.935,85.938,-246.094,13.184,117.676,20.508
1701222364.939,114.258,-740.234,8.301,80.566,-39.062
1701222364.943,60.059,-898.926,9.766,72.266,-72.266
1701222364.947,-6.836,-436.523,9.277,104.004,-13.672
1701222364.951,8.301,-259.277,6.836,132.812,49.805
1701222364.954,76.660,-526.367,17.090,95.703,7.812
1701222364.958,90.332,-731.445,18.555,36.133,-78.613
1701222364.962,7.812,-464.844,12.207,72.266,-31.738
1701222364.966,-3.906,-270.020,14.160,117.188,14.648
1701222364.970,57.129,-487.305,16.602,96.680,-36.133
1701222364.942,71.289,-741.211,16.113,63.477,-109.863
1701222364.946,12.695,-709.473,13.184,62.012,-121.582
1701222364.950,-39.551,-546.875,10.254,74.707,-82.520
1701222364.954,-15.137,-701.172,11.230,53.223,-86.426
1701222364.958,-17.090,-918.945,15.625,24.902,-161.133
1701222364.962,-53.223,-978.027,16.602,45.898,-239.746
1701222364.966,-105.957,-961.426,12.695,59.082,-202.148
1701222364.969,-108.398,-962.402,14.648,53.223,-167.480
1701222364.973,-60.059,-970.215,14.648,12.207,-227.051
1701222364.977,-82.031,-971.680,13.672,-12.695,-295.898
1701222364.981,-128.906,-970.703,16.602,43.945,-303.711
1701222364.985,-119.141,-971.191,19.043,59.570,-299.805
1701222364.986,-63.477,-971.191,16.602,10.742,-310.547
1701222364.990,-49.316,-971.191,17.578,-7.324,-321.777
1701222364.994,-92.285,-971.191,22.461,22.461,-301.270
1701222364.998,-108.398,-971.191,21.484,57.129,-254.395
1701222365.002,-64.941,-971.191,20.996,34.668,-248.535
1701222365.006,-41.504,-971.191,22.949,-11.719,-306.152
1701222365.010,-108.398,-971.191,22.949,7.324,-315.918
1701222365.013,-149.414,-971.191,18.066,38.086,-251.465
1701222365.017,-59.570,-971.191,16.113,34.668,-218.750
1701222365.021,8.301,-966.797,20.996,-2.441,-275.879
1701222365.025,-49.805,-986.816,22.949,-19.531,-356.934
1701222365.029,-86.426,-895.508,18.066,40.039,-248.535
1701222365.032,-37.109,-883.301,16.113,45.898,-145.996
1701222365.036,0.000,-972.168,18.066,-12.207,-220.215
1701222365.040,-8.789,-987.305,20.996,-18.555,-262.695
1701222365.044,-42.480,-906.250,20.508,25.391,-221.680
1701222365.048,-46.387,-677.734,17.578,48.828,-148.926
1701222365.052,-0.488,-808.594,20.020,27.344,-148.926
1701222365.056,37.598,-1000.000,21.484,-2.930,-213.379
1701222365.059,11.230,-834.961,19.531,14.648,-192.871
1701222365.063,8.789,-440.918,20.020,61.523,-89.844
1701222365.067,71.289,-612.305,18.066,61.523,-74.219
1701222365.071,78.613,-952.637,19.043,22.949,-155.762
1701222365.075,27.832,-744.629,20.508,31.250,-142.578
1701222365.075,-1.465,-439.453,18.555,81.543,-75.684
1701222365.079,45.410,-614.746,19.531,88.379,-71.289
1701222365.083,102.051,-888.184,19.531,33.691,-120.605
1701222365.087,77.637,-790.039,18.555,29.297,-142.090
1701222365.091,45.410,-441.895,19.043,80.078,-76.172
1701222365.095,62.988,-356.445,16.602,96.680,-47.363
1701222365.099,102.051,-501.465,12.695,62.988,-69.824
1701222365.102,105.469,-446.289,14.160,49.805,-71.777
1701222365.106,49.316,-300.293,8.301,53.711,-75.195
1701222365.110,38.574,-371.094,4.395,72.266,-48.340
1701222365.114,106.445,-197.266,12.207,95.703,-6.348
1701222365.118,133.789,-107.910,12.207,60.547,-59.082
1701222365.121,62.500,-90.820,10.742,43.945,-65.918
1701222365.125,6.348,275.391,14.648,80.078,17.578
1701222365.129,63.477,454.590,16.113,67.383,73.242
1701222365.133,124.023,178.711,15.625,28.320,16.602
1701222365.137,77.148,-4.395,19.531,38.574,-49.316
1701222365.141,-0.977,224.121,22.461,81.055,9.766
1701222365.145,38.086,354.004,21.484,94.238,46.875
1701222365.148,120.117,121.094,16.602,32.715,2.930
1701222365.152,82.520,-264.648,21.973,26.855,-47.363
1701222365.156,13.672,-231.445,20.996,71.777,-11.719
1701222365.160,33.691,356.445,17.090,79.102,80.566
1701222365.164,108.398,270.020,21.484,42.969,56.641
1701222365.165,112.793,-171.875,21.484,6.836,10.742
1701222365.169,30.762,-24.414,15.137,25.391,30.273
1701222365.173,27.832,298.828,13.184,45.410,110.352
1701222365.177,82.031,35.645,21.484,41.016,119.629
1701222365.181,68.848,-571.289,25.391,6.836,25.391
1701222365.185,17.090,-644.531,23.926,-6.836,5.371
1701222365.189,-14.160,-339.844,21.973,48.340,90.820
1701222365.192,24.414,-443.359,21.484,48.828,114.258
1701222365.196,68.359,-937.012,26.367,-7.324,23.926
1701222365.200,12.695,-905.273,24.902,-12.695,1.953
1701222365.204,-59.082,-469.238,19.043,29.785,77.637
1701222365.208,-10.742,-556.641,22.949,49.316,105.957
1701222365.227,78.613,-846.191,26.367,26.367,82.031
1701222365.231,54.688,-833.984,25.879,6.348,43.945
1701222365.235,-14.648,-618.652,27.832,41.016,63.477
1701222365.239,0.977,-494.141,25.879,60.059,107.422
1701222365.243,68.848,-694.824,26.855,30.273,78.613
1701222365.247,94.238,-958.984,31.250,16.602,29.785
1701222365.251,40.527,-827.148,30.762,51.758,56.152
1701222365.254,-3.906,-706.543,29.297,83.496,104.980
1701222365.258,57.129,-847.168,30.762,63.477,97.656
1701222365.262,93.262,-859.375,30.762,27.832,36.621
1701222365.266,31.738,-823.730,29.785,31.250,17.578
1701222365.270,-7.324,-606.934,28.809,71.777,96.191
1701222365.271,42.969,-524.414,27.832,60.059,143.066
1701222365.275,106.934,-644.043,26.367,14.160,99.609
1701222365.279,65.430,-781.250,26.855,13.184,54.199
1701222365.283,-19.043,-620.605,24.902,31.738,76.660
1701222365.287,20.508,-382.324,26.367,43.945,110.840
1701222365.291,104.980,-613.770,31.738,37.109,106.934
1701222365.295,81.543,-927.246,30.273,11.230,55.176
1701222365.298,2.930,-623.047,29.785,20.996,85.449
1701222365.302,-13.184,-210.938,29.785,52.246,148.438
1701222365.306,61.523,-285.645,30.762,28.320,142.090
1701222365.310,83.008,-681.152,35.645,-2.441,66.895
1701222365.314,24.414,-996.094,37.109,29.297,26.367
1701222365.300,-4.395,-622.559,31.738,68.848,67.871
1701222365.304,57.129,-218.750,23.438,39.062,115.234
1701222365.308,100.098,-527.832,19.043,-10.254,86.914
1701222365.312,56.152,-556.641,19.043,1.953,52.734
1701222365.316,13.672,-87.891,14.648,43.457,117.676
1701222365.320,59.570,-140.137,12.695,50.293,128.906
1701222365.324,115.234,-588.379,13.184,20.020,75.684
1701222365.327,99.121,-592.773,8.789,-11.230,43.945
1701222365.331,38.086,-148.926,5.371,28.809,91.797
1701222365.335,23.926,113.281,5.371,63.477,149.902
1701222365.339,89.355,-416.504,1.953,26.367,88.379
1701222365.343,94.238,-737.793,-2.441,-13.184,30.273
1701222365.345,13.184,-134.766,-4.883,-4.395,81.543
1701222365.349,-5.859,128.906,-4.395,33.691,118.164
1701222365.353,81.055,-32.715,-3.418,17.578,112.305
1701222365.357,115.723,-129.883,-0.977,-14.648,93.750
1701222365.361,35.645,14.648,3.418,11.230,94.238
1701222365.365,-10.742,112.793,5.371,57.129,133.301
1701222365.369,43.945,-148.438,6.836,38.574,120.605
1701222365.372,101.562,-179.688,7.324,7.812,77.148
1701222365.376,41.016,62.988,10.254,30.273,79.102
1701222365.380,-42.969,184.082,10.254,53.223,113.770
1701222365.384,17.090,173.340,7.324,52.734,108.887
1701222365.388,92.773,67.871,9.766,20.508,76.172
1701222365.394,85.938,-17.090,11.230,9.766,48.828
1701222365.398,15.625,-67.383,14.160,51.758,53.711
1701222365.402,-10.254,-35.156,17.090,63.965,107.910
1701222365.406,62.988,39.551,14.160,30.762,118.164
1701222365.410,76.172,-168.945,18.555,21.484,74.219
1701222365.414,22.461,-266.113,20.996,44.922,54.688
1701222365.418,0.000,-157.227,20.020,62.988,79.590
1701222365.421,41.016,-96.680,22.949,47.852,96.680
1701222365.425,96.191,-400.391,25.879,12.695,26.367
1701222365.429,25.391,-580.078,21.973,18.555,-20.996
1701222365.433,-59.570,-185.059,20.020,56.641,58.105
1701222365.437,20.020,-0.977,22.461,48.828,125.000
1701222365.452,102.539,-393.066,24.414,22.461,60.547
1701222365.456,50.293,-673.340,26.855,17.578,19.043
1701222365.460,-33.203,-352.539,25.879,49.805,69.336
1701222365.464,6.836,-74.219,22.949,62.500,118.652
1701222365.468,91.309,-350.586,21.484,34.180,101.562
1701222365.472,54.199,-898.438,24.414,8.301,21.973
1701222365.476,-24.902,-912.109,28.320,32.227,-12.695
1701222365.479,-22.461,-366.699,29.297,65.918,52.246
1701222365.483,38.086,-403.809,28.809,36.621,55.176
1701222365.487,61.035,-642.090,26.367,5.859,28.809
1701222365.491,-16.113,-420.410,25.391,28.809,40.039
1701222365.495,-69.336,-208.008,22.461,55.176,80.566
1701222365.497,49.805,-341.309,22.461,30.273,97.168
1701222365.501,83.496,-563.965,26.367,16.602,33.691
1701222365.505,-24.902,-353.516,26.855,33.691,34.668
1701222365.509,-52.246,-19.531,22.949,51.270,85.938
1701222365.513,6.348,-105.957,21.484,34.668,84.961
1701222365.517,58.105,-478.027,24.902,-10.742,12.207
1701222365.521,28.320,-517.090,24.902,-10.742,-17.090
1701222365.524,-14.648,-104.004,22.949,22.461,37.598
1701222365.528,2.441,-95.215,20.996,37.598,65.430
1701222365.532,82.520,-397.461,19.531,5.371,24.414
1701222365.536,75.195,-128.418,15.625,-17.090,31.738
1701222365.540,-29.785,96.191,16.602,14.160,44.922
1701222365.557,-43.457,69.336,19.531,47.363,53.711
1701222365.561,34.668,59.570,16.113,13.184,51.758
1701222365.565,77.637,-62.012,15.625,-6.348,-7.324
1701222365.569,-5.371,-150.879,17.578,29.297,-30.762
1701222365.573,-47.852,123.535,15.137,52.246,15.625
1701222365.577,18.066,189.453,17.090,53.223,41.504
1701222365.581,49.805,-58.594,20.508,23.926,6.348
1701222365.584,-4.883,-91.309,18.066,26.855,-23.438
1701222365.588,-52.734,-181.152,17.090,72.754,-9.766
1701222365.592,17.090,-30.762,16.113,82.520,34.180
1701222365.596,93.262,53.223,20.508,45.410,27.344
1701222365.600,53.223,-215.332,24.902,28.320,-6.836
1701222365.694,-2.441,-102.051,22.461,50.293,21.484
1701222365.698,-4.395,124.512,23.926,83.008,89.355
1701222365.702,55.664,-151.367,24.902,67.871,61.523
1701222365.706,69.336,-545.410,26.367,32.715,1.953
1701222365.710,-3.906,-505.371,26.855,45.410,4.883
1701222365.714,-8.301,-327.148,25.879,66.895,72.754
1701222365.718,54.199,-600.586,26.367,42.969,61.523
1701222365.721,83.984,-961.914,25.391,14.648,-27.344
1701222365.725,29.785,-876.953,25.391,25.879,-38.574
1701222365.729,-14.160,-549.316,22.461,62.500,38.086
1701222365.733,35.645,-609.863,27.344,53.711,69.336
1701222365.737,74.219,-933.594,31.738,5.859,-2.441
1701222365.706,20.996,-978.516,30.273,-1.465,-21.484
1701222365.710,-5.371,-782.715,33.691,36.621,45.410
1701222365.714,29.785,-793.457,32.715,54.688,55.664
1701222365.718,59.082,-978.027,35.645,25.391,-16.113
1701222365.722,63.965,-973.633,36.133,17.578,-50.781
1701222365.726,7.324,-965.332,33.203,46.387,-11.719
1701222365.730,-10.742,-964.844,35.645,50.293,36.621
1701222365.733,73.730,-958.984,36.621,31.738,10.742
1701222365.737,88.867,-993.164,35.156,20.508,-56.152
1701222365.741,-5.371,-886.719,34.668,29.785,-28.320
1701222365.745,-60.547,-731.934,32.227,54.199,40.039
1701222365.749,11.230,-804.199,29.785,27.832,27.344
1701222365.724,75.195,-899.414,31.250,0.488,-20.508
1701222365.728,38.086,-768.066,34.668,28.809,-17.090
1701222365.732,-16.602,-505.371,32.715,53.223,41.992
1701222365.736,36.133,-443.848,33.203,43.457,63.477
1701222365.740,111.816,-602.051,34.180,12.207,17.090
1701222365.744,48.828,-655.273,32.715,9.277,7.812
1701222365.748,-17.090,-497.070,27.832,41.016,34.180
1701222365.751,22.461,-363.770,30.273,53.223,60.547
1701222365.755,89.844,-496.094,29.297,33.691,55.176
1701222365.759,99.609,-708.008,23.438,20.996,20.508
1701222365.763,48.340,-575.195,28.320,45.410,55.176
1701222365.767,48.828,-325.684,29.785,71.289,114.258
1701222365.751,133.789,-469.238,22.461,60.059,94.238
1701222365.755,125.000,-780.762,23.926,35.156,42.969
1701222365.759,22.461,-753.418,35.645,26.855,48.828
1701222365.763,-7.324,-424.805,37.598,49.316,104.492
1701222365.767,66.406,-420.898,36.133,42.480,107.910
1701222365.771,130.859,-769.043,39.062,12.207,53.711
1701222365.775,73.242,-856.934,41.992,7.324,29.297
1701222365.778,1.953,-478.516,43.457,42.969,94.238
1701222365.782,52.246,-379.395,46.387,45.898,114.258
1701222365.786,107.910,-713.379,46.387,5.371,60.059
1701222365.790,57.129,-994.141,43.457,3.418,4.883
1701222365.794,-23.438,-933.105,38.574,36.133,28.320
1701222365.797,18.066,-570.801,33.691,44.434,98.633
1701222365.801,100.586,-693.848,38.574,5.859,63.477
1701222365.805,62.988,-931.641,38.086,-5.371,14.160
1701222365.809,-9.766,-608.887,30.762,32.227,47.852
1701222365.813,3.906,-339.355,33.203,57.129,86.426
1701222365.817,67.383,-577.148,33.203,34.668,86.914
1701222365.821,87.891,-1000.000,31.738,2.441,6.836
1701222365.824,2.930,-866.699,32.227,14.648,-10.742
1701222365.828,-38.574,-454.590,29.297,46.387,71.289
1701222365.832,44.434,-429.688,33.691,38.574,80.566
1701222365.836,96.680,-571.289,38.086,8.301,48.340
1701222365.840,50.293,-537.109,35.645,11.230,43.457
1701222365.826,-13.184,-363.281,31.738,39.551,66.895
1701222365.830,16.602,-662.598,33.203,41.504,52.734
1701222365.834,108.398,-992.188,34.668,5.371,-0.977
1701222365.838,84.961,-774.414,31.738,-1.465,0.977
1701222365.842,-26.855,-611.816,30.762,34.668,43.945
1701222365.846,-14.160,-725.098,32.227,48.340,64.941
1701222365.850,90.332,-911.133,34.668,26.855,36.133
1701222365.853,94.727,-968.262,35.156,16.602,-2.441
1701222365.857,7.812,-991.699,35.645,33.203,-2.930
1701222365.861,-5.859,-806.152,35.156,62.012,62.500
1701222365.865,61.035,-765.625,35.156,52.246,73.730
1701222365.869,105.469,-974.609,34.180,16.113,4.883
1701222365.901,37.109,-975.098,34.180,28.320,-22.461
1701222365.905,-21.973,-966.309,35.645,53.711,-4.883
1701222365.909,44.922,-935.059,33.691,41.016,46.387
1701222365.913,114.746,-945.801,34.668,11.719,57.617
1701222365.917,64.453,-986.328,34.180,3.906,31.738
1701222365.921,-18.555,-921.387,34.668,26.855,53.711
1701222365.925,44.434,-885.742,35.156,39.062,90.332
1701222365.928,138.672,-954.102,35.645,19.043,41.992
1701222365.932,95.703,-988.281,37.109,5.859,-26.855
1701222365.936,3.418,-914.551,34.180,31.250,-12.207
1701222365.940,10.254,-627.441,31.250,49.316,68.359
1701222365.944,119.141,-628.418,33.691,33.691,100.586
1701222365.916,130.859,-918.457,34.180,15.137,60.547
1701222365.920,45.898,-782.715,35.156,49.316,40.039
1701222365.924,21.973,-369.629,32.715,83.496,105.469
1701222365.928,93.262,-409.180,32.227,67.383,136.719
1701222365.932,138.672,-763.184,35.645,37.598,69.336
1701222365.936,69.824,-699.707,36.133,41.992,70.801
1701222365.940,14.160,-406.738,35.645,77.637,135.742
1701222365.943,76.172,-469.727,36.133,75.684,140.625
1701222365.947,150.391,-685.547,39.551,62.012,103.027
1701222365.951,101.074,-585.449,37.109,57.617,79.590
1701222365.955,2.441,-429.688,34.180,50.781,98.145
1701222365.959,16.602,-508.789,31.738,58.594,132.324
1701222365.977,96.680,-660.156,27.832,32.227,108.398
1701222365.981,108.887,-696.289,26.367,17.578,65.430
1701222365.985,38.574,-428.711,25.391,59.570,116.211
1701222365.989,36.133,-443.359,22.949,82.031,150.391
1701222365.993,106.445,-900.879,23.438,46.875,85.449
1701222365.997,140.625,-903.320,20.020,9.277,62.012
1701222366.001,79.590,-627.930,12.207,21.484,98.145
1701222366.004,20.508,-588.379,15.137,57.129,125.488
1701222366.008,98.633,-645.508,21.484,49.316,119.629
1701222366.012,155.762,-551.270,20.508,10.254,84.473
1701222366.016,83.008,-517.090,18.555,9.766,65.430
1701222366.020,42.480,-362.305,20.508,47.852,100.098
1701222366.022,110.840,-165.527,18.555,58.105,153.320
1701222366.026,172.363,-382.812,20.996,19.531,122.070
1701222366.030,124.512,-661.133,24.414,5.859,66.895
1701222366.034,37.598,-450.195,22.949,43.457,88.867
1701222366.038,50.293,-141.602,24.902,67.871,142.578
1701222366.042,121.094,-377.441,30.762,47.852,116.211
1701222366.046,115.723,-795.898,30.762,20.996,32.715
1701222366.049,46.387,-581.543,28.320,51.758,46.875
1701222366.053,33.691,-104.980,29.297,80.566,129.883
1701222366.057,108.887,-173.828,31.738,61.523,110.352
1701222366.061,154.297,-579.102,33.203,38.086,56.641
1701222366.065,74.707,-895.508,31.738,42.480,40.039
1701222366.051,17.578,-488.770,30.273,69.336,75.195
1701222366.055,92.773,-136.719,30.762,62.988,123.047
1701222366.059,164.062,-462.402,35.156,29.297,85.938
1701222366.063,90.332,-553.711,39.062,41.016,31.250
1701222366.067,4.883,-304.199,39.551,69.824,62.012
1701222366.071,55.664,-269.531,36.621,75.195,109.375
1701222366.075,108.398,-588.867,34.180,42.969,57.617
1701222366.078,69.824,-686.035,34.668,13.672,18.066
1701222366.082,18.066,-333.984,32.227,35.645,54.199
1701222366.086,34.180,-65.430,32.715,60.547,103.027
1701222366.090,102.051,-531.250,34.180,41.016,65.918
1701222366.094,125.488,-930.176,34.180,23.438,3.418
1701222366.096,30.273,-419.922,35.156,50.293,32.715
1701222366.100,5.371,-88.379,36.133,75.684,94.727
1701222366.104,97.168,-247.070,37.598,53.711,99.121
1701222366.108,113.770,-443.359,40.527,25.391,47.852
1701222366.112,37.598,-351.074,38.086,33.691,46.875
1701222366.116,-12.207,-294.922,35.156,63.477,80.566
1701222366.120,44.922,-418.945,34.668,67.383,99.121
1701222366.123,132.324,-520.508,36.133,31.250,72.754
1701222366.127,81.543,-497.070,36.133,22.461,37.109
1701222366.131,-19.043,-301.758,33.203,63.477,70.312
1701222366.135,37.598,-390.137,33.691,66.406,93.262
1701222366.139,113.770,-359.863,35.645,28.320,90.332
1701222366.187,72.754,-319.336,36.133,24.902,69.824
1701222366.191,4.883,-321.777,32.715,51.758,50.781
1701222366.195,11.719,-182.129,35.645,65.430,76.172
1701222366.199,83.008,-250.977,40.039,51.270,65.918
1701222366.203,85.449,-487.305,39.062,21.484,19.043
1701222366.207,10.254,-595.215,38.086,33.203,6.836
1701222366.211,-21.484,-482.910,36.133,63.965,30.762
1701222366.214,35.156,-333.496,34.180,47.852,52.734
1701222366.218,76.660,-485.352,38.574,16.113,19.531
1701222366.222,23.926,-651.367,40.527,22.949,-9.277
1701222366.226,-16.602,-428.223,37.598,56.152,46.387
1701222366.230,47.852,-297.852,36.133,46.387,62.988
1701222366.204,111.328,-503.418,37.598,4.395,4.395
1701222366.208,56.641,-892.578,39.551,-5.371,-62.012
1701222366.212,-11.719,-675.293,35.645,26.367,-27.344
1701222366.216,5.859,-126.953,35.645,59.570,75.195
1701222366.220,85.449,-448.242,41.992,28.809,14.160
1701222366.224,97.656,-852.051,41.992,5.859,-61.523
1701222366.228,6.348,-654.297,39.062,36.133,-24.414
1701222366.231,-15.625,-231.934,39.062,43.457,55.664
1701222366.235,69.336,-419.922,41.504,33.691,43.945
1701222366.239,94.727,-830.078,40.039,20.996,-35.156
1701222366.243,20.508,-519.043,36.133,29.297,-4.395
1701222366.247,10.254,-174.316,34.668,65.430,52.246
1701222366.276,70.312,-396.484,36.133,65.430,35.645
1701222366.280,88.379,-758.301,35.645,23.926,0.488
1701222366.284,25.879,-626.953,33.691,23.438,-6.348
1701222366.288,-15.625,-221.680,33.203,63.965,41.016
1701222366.292,21.973,-341.309,34.180,66.406,59.082
1701222366.296,94.727,-737.793,35.156,30.762,11.719
1701222366.300,86.426,-715.820,30.762,17.090,-15.137
1701222366.303,-18.066,-429.199,31.250,47.363,23.926
1701222366.307,-14.160,-414.551,35.156,67.871,60.059
1701222366.311,70.801,-915.039,38.086,44.922,-17.578
1701222366.315,76.660,-806.152,39.062,29.785,-36.621
1701222366.319,3.418,-281.738,36.133,38.086,31.738
1701222366.321,6.348,-114.258,34.668,59.082,61.035
1701222366.325,74.219,-205.078,36.621,49.316,50.781
1701222366.329,78.613,-455.078,36.133,16.602,-12.695
1701222366.333,7.324,-480.469,33.691,22.461,-20.020
1701222366.337,-45.410,-373.535,35.156,64.453,22.949
1701222366.341,19.531,-462.402,37.598,60.059,21.973
1701222366.345,88.867,-693.848,37.109,19.043,-20.996
1701222366.348,28.320,-742.188,37.109,23.926,-38.574
1701222366.352,-43.457,-498.535,37.598,46.387,-1.953
1701222366.356,-7.812,-295.410,37.109,36.621,35.156
1701222366.360,56.152,-458.496,40.039,19.531,5.371
1701222366.364,32.227,-801.270,41.992,7.324,-48.828
1701222366.339,-31.250,-764.160,36.621,30.762,-43.457
1701222366.343,-10.742,-336.426,31.738,43.457,20.508
1701222366.347,48.828,-429.199,35.156,-6.836,4.883
1701222366.351,42.969,-844.727,39.062,-24.414,-81.543
1701222366.355,-8.301,-893.066,37.598,4.395,-83.984
1701222366.359,-15.625,-489.258,37.598,24.414,-3.906
1701222366.363,42.480,-495.117,38.086,22.461,9.277
1701222366.366,73.730,-806.152,35.645,1.465,-40.039
1701222366.370,15.137,-630.371,37.109,9.766,-43.945
1701222366.374,-18.555,-230.469,36.133,63.965,3.418
1701222366.378,46.875,-195.312,34.668,68.848,40.039
1701222366.382,97.168,-664.062,39.551,34.180,-14.160
1701222366.381,41.016,-727.539,39.062,22.461,-33.691
1701222366.385,1.465,-286.133,36.133,43.457,36.621
1701222366.389,46.875,-272.461,39.062,71.289,58.594
1701222366.393,103.516,-696.289,41.016,40.039,7.812
1701222366.397,72.754,-757.324,38.086,15.625,-7.324
1701222366.401,-7.324,-588.867,36.621,62.988,7.812
1701222366.405,11.230,-558.594,38.574,97.656,50.293
1701222366.408,74.219,-826.172,42.480,61.035,16.602
1701222366.412,93.262,-1000.000,44.434,32.227,-73.730
1701222366.416,53.223,-718.262,41.016,51.270,-46.387
1701222366.420,-3.906,-558.105,38.574,83.008,17.090
1701222366.424,58.594,-635.254,40.527,49.316,35.645
1701222366.441,109.375,-629.883,41.504,7.324,19.043
1701222366.445,50.293,-588.867,40.039,26.855,14.648
1701222366.449,11.230,-419.922,37.109,46.387,61.523
1701222366.453,59.570,-351.074,37.109,56.152,95.703
1701222366.457,131.836,-562.012,40.527,36.133,44.922
1701222366.461,86.914,-719.238,36.621,14.160,19.043
1701222366.465,12.695,-806.641,37.109,60.547,24.414
1701222366.468,38.574,-788.086,41.504,79.590,35.645
1701222366.472,99.609,-609.863,42.969,47.852,51.270
1701222366.476,92.773,-725.098,44.434,29.297,15.625
1701222366.480,45.898,-691.406,43.457,52.246,23.926
1701222366.484,47.852,-455.566,41.992,99.121,89.844
1701222366.487,98.145,-483.398,40.527,91.309,85.449
1701222366.491,119.629,-868.164,41.504,46.875,21.973
1701222366.495,39.551,-848.633,42.969,52.246,39.551
1701222366.499,7.324,-406.738,41.992,80.566,107.422
1701222366.503,73.730,-385.742,41.016,73.730,106.934
1701222366.507,128.418,-811.523,40.039,40.527,51.270
1701222366.511,64.453,-918.457,40.527,41.992,20.508
1701222366.514,-1.465,-475.098,38.086,81.543,80.078
1701222366.518,59.570,-253.906,37.109,84.961,118.652
1701222366.522,105.469,-641.602,41.016,47.852,59.570
1701222366.526,63.477,-874.512,43.457,39.551,16.113
1701222366.530,0.977,-438.477,42.969,75.195,80.078
1701222366.576,25.391,-100.586,41.992,82.520,141.602
1701222366.580,96.680,-509.277,41.016,47.363,88.867
1701222366.584,95.215,-881.348,43.457,29.297,26.367
1701222366.588,20.508,-448.242,39.062,48.828,72.754
1701222366.592,-8.789,-213.379,37.109,76.660,118.164
1701222366.596,63.477,-532.715,39.551,57.129,75.195
1701222366.600,115.723,-801.758,38.574,31.250,13.184
1701222366.603,47.852,-502.441,37.598,41.504,61.523
1701222366.607,-16.602,-124.023,37.598,71.777,135.742
1701222366.611,40.527,-466.797,42.480,70.312,121.094
1701222366.615,102.051,-951.660,44.922,25.879,30.273
1701222366.619,55.176,-678.711,38.574,24.414,15.137
1701222366.580,-3.418,-299.805,39.062,68.359,113.281
1701222366.584,40.527,-365.234,42.969,70.312,121.094
1701222366.588,105.469,-610.352,44.434,35.645,60.059
1701222366.592,75.195,-630.371,41.504,25.879,61.035
1701222366.596,-8.301,-469.238,40.527,71.289,112.793
1701222366.600,-15.625,-500.000,41.992,98.633,123.047
1701222366.604,58.594,-734.375,41.016,49.805,96.680
1701222366.607,76.660,-870.605,41.016,29.297,63.965
1701222366.611,8.301,-750.000,39.551,48.340,60.059
1701222366.615,-13.672,-497.559,38.574,63.965,114.746
1701222366.619,55.664,-465.332,38.574,50.781,119.141
1701222366.623,90.332,-708.008,43.945,11.719,52.734
1701222366.623,47.363,-874.512,44.922,32.715,21.484
1701222366.627,-1.465,-692.871,36.133,74.707,71.777
1701222366.631,28.320,-463.867,36.621,67.871,106.934
1701222366.635,84.473,-664.551,41.504,28.320,58.105
1701222366.639,37.109,-935.547,42.969,24.414,-3.906
1701222366.643,-2.441,-800.781,43.457,66.406,46.875
1701222366.647,34.180,-518.066,42.969,78.613,117.188
1701222366.650,63.965,-768.066,41.504,40.039,53.711
1701222366.654,46.875,-965.820,43.945,19.043,-5.859
1701222366.658,-11.719,-984.375,46.875,41.992,8.789
1701222366.662,-7.812,-719.238,42.969,69.824,77.637
1701222366.666,74.219,-455.078,39.551,52.734,80.078
1701222366.682,86.426,-681.641,40.527,24.902,15.137
1701222366.686,13.184,-487.305,40.527,52.246,46.387
1701222366.690,-20.996,-62.012,40.527,75.684,127.930
1701222366.694,37.109,-219.727,44.434,68.848,103.027
1701222366.698,88.867,-611.816,46.875,46.875,27.344
1701222366.702,37.109,-536.133,41.504,37.598,44.434
1701222366.706,-3.906,-238.770,37.109,68.359,104.004
1701222366.709,59.082,-206.543,40.039,64.941,131.348
1701222366.713,84.961,-655.762,44.434,8.789,59.082
1701222366.717,43.457,-599.609,41.016,2.441,20.020
1701222366.721,6.836,-65.430,37.598,55.176,84.961
1701222366.725,25.879,-81.543,40.039,79.590,116.211
1701222366.712,88.379,-485.840,41.504,43.945,61.035
1701222366.716,70.801,-531.250,42.480,25.391,23.926
1701222366.720,2.930,-206.543,41.992,51.758,61.523
1701222366.724,3.418,-15.625,40.527,71.289,137.207
1701222366.728,72.266,-167.480,41.504,54.199,120.117
1701222366.732,77.148,-480.469,41.504,20.508,36.621
1701222366.736,4.883,-477.051,40.527,25.879,31.250
1701222366.739,-13.184,-355.957,40.039,63.477,101.074
1701222366.743,52.246,-391.113,35.645,43.945,116.699
1701222366.747,116.211,-373.047,32.227,12.695,54.688
1701222366.751,58.594,-314.941,31.738,20.508,33.691
1701222366.755,-4.395,-374.512,32.715,46.387,66.895
1701222366.787,34.180,-441.895,33.691,46.387,95.703
1701222366.791,101.562,-285.156,33.691,21.484,77.148
1701222366.795,77.637,-358.887,36.133,7.812,36.621
1701222366.799,-5.371,-303.223,35.156,41.992,63.965
1701222366.803,18.555,-94.238,35.645,68.359,121.094
1701222366.807,101.074,-283.691,41.016,43.945,77.148
1701222366.811,98.145,-629.395,46.875,28.320,13.672
1701222366.814,1.953,-649.902,44.922,51.270,49.316
1701222366.818,-15.625,-248.047,40.039,78.613,112.305
1701222366.822,41.992,-39.551,39.551,57.617,132.812
1701222366.826,66.895,-448.730,39.551,31.250,78.125
1701222366.830,34.180,-580.078,37.598,53.223,28.320
1701222366.831,9.766,-175.293,39.062,79.102,89.355
1701222366.835,47.363,-83.008,43.945,60.547,125.488
1701222366.839,82.520,-639.160,46.387,21.973,21.973
1701222366.843,38.086,-757.324,44.922,34.668,1.953
1701222366.847,-6.836,-208.008,43.945,68.848,96.191
1701222366.851,21.484,-212.891,43.945,55.664,122.070
1701222366.855,76.172,-603.516,39.551,24.902,71.289
1701222366.858,62.988,-779.297,38.086,13.184,-0.488
1701222366.862,-2.441,-484.375,38.086,44.434,41.992
1701222366.866,16.113,-254.883,35.156,63.965,112.793
1701222366.870,76.172,-521.484,37.109,28.809,85.938
1701222366.874,79.590,-727.539,41.992,10.742,30.762
1701222366.861,15.137,-548.340,43.457,43.945,30.762
1701222366.865,-24.902,-287.109,42.969,72.266,84.473
1701222366.869,41.992,-562.012,45.410,56.641,88.867
1701222366.873,69.824,-939.453,48.828,7.812,24.414
1701222366.877,9.766,-534.180,43.945,0.977,29.785
