timestamps,TP9,AF7,AF8,TP10,Right AUX
1701220171.493,314.453,53.223,76.660,214.355,48.828
1701220171.497,325.195,14.648,50.781,249.023,54.199
1701220171.501,376.953,-15.137,26.367,270.020,85.938
1701220171.505,398.438,-46.875,6.836,354.980,163.086
1701220171.509,339.355,-73.730,-5.371,346.191,147.461
1701220171.513,276.367,-104.980,-26.367,241.211,142.090
1701220171.517,292.480,-115.234,-40.527,296.387,167.969
1701220171.520,313.477,-120.117,-51.758,304.199,196.289
1701220171.524,365.723,-127.930,-68.359,242.188,225.586
1701220171.528,363.770,-118.652,-73.730,237.793,206.055
1701220171.532,240.234,-116.699,-66.895,222.656,205.078
1701220171.536,135.742,-112.793,-67.383,189.941,245.117
1701220171.539,132.324,-109.863,-83.008,122.070,282.227
1701220171.543,132.324,-111.816,-86.914,51.758,274.902
1701220171.547,105.957,-99.121,-74.707,33.691,246.094
1701220171.551,58.594,-78.613,-66.895,62.500,284.668
1701220171.555,13.184,-82.031,-63.965,7.812,338.379
1701220171.559,-39.551,-104.004,-90.332,-131.348,327.148
1701220171.563,-67.383,-79.590,-94.238,-168.457,326.172
1701220171.566,-92.773,-65.918,-82.520,-130.859,348.633
1701220171.570,-76.172,-75.195,-87.891,-112.305,407.227
1701220171.574,-59.570,-56.641,-83.984,-114.258,439.941
1701220171.578,-99.609,-61.523,-91.309,-158.691,417.969
1701220171.582,-206.543,-71.777,-83.984,-182.617,431.641
1701220171.552,-192.383,-35.645,-67.383,-179.688,507.812
1701220171.556,-128.418,-33.203,-67.871,-188.965,559.570
1701220171.560,-89.355,-27.832,-67.383,-160.645,510.254
1701220171.564,-41.504,2.930,-73.242,-130.859,522.949
1701220171.568,-71.289,10.742,-69.824,-99.121,593.750
1701220171.572,-77.148,30.762,-61.035,-103.027,632.812
1701220171.576,-70.312,18.066,-71.777,-175.781,616.699
1701220171.579,-146.484,30.273,-71.289,-188.965,607.422
1701220171.583,-93.262,107.910,-40.527,-128.418,647.461
1701220171.587,-6.348,111.816,-41.992,-61.035,693.848
1701220171.591,19.043,130.859,-36.621,-28.809,704.102
1701220171.595,-45.898,159.180,-19.043,-99.609,688.965
1701220171.615,-32.227,168.457,-23.438,-113.281,724.121
1701220171.619,-50.781,185.059,-0.488,-16.113,769.043
1701220171.623,-43.457,215.332,7.324,-34.180,756.348
1701220171.627,-86.426,240.234,11.230,-132.812,734.863
1701220171.631,-111.816,267.578,30.762,-109.375,762.207
1701220171.635,-68.359,295.898,40.039,-82.520,797.852
1701220171.639,-53.711,330.566,35.645,-93.750,815.430
1701220171.642,17.090,352.051,36.621,-72.266,781.738
1701220171.646,35.645,352.539,33.203,-42.480,753.418
1701220171.650,-36.133,363.770,35.156,-3.418,793.457
1701220171.654,-78.125,368.652,43.945,-52.246,806.641
1701220171.658,-33.203,378.906,35.645,-112.793,780.762
1701220171.658,-6.836,389.160,27.344,-79.102,721.191
1701220171.662,-45.898,402.344,28.320,-56.152,728.516
1701220171.666,-35.156,401.855,23.438,-63.965,752.930
1701220171.670,14.160,388.672,26.367,-5.859,745.605
1701220171.674,-18.555,376.465,21.973,-13.184,693.848
1701220171.678,-28.809,375.488,7.812,-59.570,652.832
1701220171.682,-22.949,368.652,4.883,-26.367,687.500
1701220171.685,23.438,354.004,-12.695,-33.203,700.195
1701220171.689,62.012,347.168,-22.461,-35.645,644.043
1701220171.693,-46.387,336.426,-23.926,-4.395,583.496
1701220171.697,-66.406,314.941,-31.738,-18.066,604.980
1701220171.701,35.156,294.922,-35.645,-46.387,644.531
1701220171.733,26.855,266.602,-46.387,-34.668,618.164
1701220171.737,15.625,258.301,-48.340,21.484,565.430
1701220171.741,41.016,234.863,-45.898,47.852,570.801
1701220171.745,57.617,202.148,-59.570,10.254,612.793
1701220171.749,193.848,197.754,-62.012,76.660,562.012
1701220171.753,110.352,167.969,-58.105,126.953,486.816
1701220171.757,-29.785,143.555,-60.059,23.438,467.773
1701220171.760,74.707,127.930,-55.664,18.066,523.926
1701220171.764,172.852,111.816,-57.617,104.004,521.973
1701220171.768,154.785,98.633,-68.848,154.297,452.637
1701220171.772,62.988,78.125,-68.359,170.410,501.953
1701220171.776,161.621,66.895,-59.082,165.527,544.434
1701220171.762,176.270,42.969,-59.082,159.668,521.484
1701220171.766,195.801,22.461,-71.289,160.645,526.367
1701220171.770,410.156,20.996,-67.871,272.949,526.855
1701220171.774,362.305,4.883,-62.988,395.996,551.758
1701220171.778,251.465,-20.996,-81.055,367.188,566.895
1701220171.782,360.352,-37.598,-87.891,313.477,516.602
1701220171.786,347.656,-47.852,-83.984,378.418,477.051
1701220171.789,387.695,-47.363,-88.867,424.805,509.277
1701220171.793,496.094,-47.852,-98.633,416.016,591.309
1701220171.797,508.301,-53.711,-100.586,506.348,597.168
1701220171.801,418.457,-58.594,-101.074,555.664,543.457
1701220171.805,448.242,-56.641,-111.816,486.328,518.066
1701220171.792,490.234,-55.176,-115.723,441.406,519.043
1701220171.796,506.348,-55.176,-116.211,444.824,537.109
1701220171.800,489.258,-53.711,-116.211,462.402,514.160
1701220171.804,399.902,-49.805,-107.910,475.098,492.188
1701220171.808,401.855,-46.875,-99.609,461.426,494.629
1701220171.812,412.109,-44.434,-102.539,427.246,512.207
1701220171.816,389.648,-44.922,-102.539,422.363,504.395
1701220171.819,375.977,-41.504,-94.727,393.555,447.266
1701220171.823,356.934,-27.344,-89.355,351.074,450.684
1701220171.827,318.359,-38.574,-85.938,290.039,492.188
1701220171.831,288.574,-20.508,-72.754,266.113,432.617
1701220171.835,268.066,-8.789,-54.199,264.648,342.285
1701220171.838,215.820,-22.461,-51.270,205.566,366.211
1701220171.842,157.715,-30.273,-58.105,141.113,444.336
1701220171.846,128.906,-40.527,-47.852,93.750,436.523
1701220171.850,100.586,-28.809,-27.832,72.754,365.234
1701220171.854,65.430,-29.785,-21.484,23.438,375.000
1701220171.858,-27.832,-46.387,-16.602,-43.945,423.340
1701220171.862,-37.598,-38.086,0.488,-61.523,378.418
1701220171.865,-46.387,-53.711,4.395,-84.961,310.547
1701220171.869,-186.035,-59.082,-0.488,-144.531,331.055
1701220171.873,-173.340,-27.832,-9.277,-178.711,354.980
1701220171.877,-193.848,-67.871,-22.461,-210.449,322.266
1701220171.881,-149.902,-29.785,-0.488,-207.031,252.930
1701220171.882,-126.953,18.555,-16.602,-189.453,186.035
1701220171.886,-188.477,-11.230,-45.898,-200.195,216.797
1701220171.890,-137.695,0.488,-29.297,-167.969,240.234
1701220171.894,-95.215,26.367,-11.230,-183.594,138.672
1701220171.898,-120.605,25.391,-6.836,-157.227,97.656
1701220171.902,-145.508,31.250,-14.160,-96.191,89.355
1701220171.906,-125.000,46.387,-16.602,-155.273,64.453
1701220171.909,-139.160,51.270,-14.160,-178.711,37.598
1701220171.913,-109.863,67.383,-16.602,-163.086,2.930
1701220171.917,-71.777,80.078,-15.625,-150.879,-28.809
1701220171.921,-73.730,76.172,-8.789,-56.152,-35.645
1701220171.925,-22.949,85.449,-7.324,-22.949,-44.434
1701220171.944,-11.230,93.262,-7.812,-37.109,-66.895
1701220171.948,5.371,92.285,-11.719,-25.391,-80.566
1701220171.952,107.910,95.703,-10.254,44.922,-89.844
1701220171.956,170.898,93.262,-8.301,116.699,-62.988
1701220171.960,164.062,82.031,-14.648,127.930,-97.168
1701220171.964,145.508,74.219,-17.090,156.250,-144.043
1701220171.968,213.867,75.684,-22.461,203.125,-149.414
1701220171.971,249.512,65.918,-31.738,210.938,-113.281
1701220171.975,248.535,49.316,-35.156,227.539,-117.188
1701220171.979,310.059,45.410,-43.457,272.461,-187.012
1701220171.983,301.758,41.992,-50.293,290.527,-199.219
1701220171.987,285.156,39.551,-57.129,244.629,-159.668
1701220172.003,328.613,35.156,-63.477,279.785,-142.578
1701220172.007,347.656,27.832,-66.406,301.270,-180.176
1701220172.011,317.871,24.902,-68.848,262.207,-181.152
1701220172.015,339.355,24.902,-66.895,296.875,-105.469
1701220172.019,339.355,25.879,-60.547,307.129,-115.723
1701220172.023,289.551,19.531,-61.523,265.625,-204.102
1701220172.027,286.133,19.043,-63.477,250.000,-222.168
1701220172.030,292.969,22.949,-59.570,251.465,-218.750
1701220172.034,315.918,19.531,-57.617,275.391,-206.543
1701220172.038,307.129,16.602,-54.688,268.555,-247.070
1701220172.042,248.535,17.578,-55.176,231.934,-324.219
1701220172.046,200.195,15.137,-52.246,209.473,-284.668
1701220172.034,231.445,13.184,-46.875,198.242,-248.535
1701220172.038,252.930,11.719,-43.945,196.289,-253.906
1701220172.042,185.547,8.789,-46.875,158.203,-278.809
1701220172.046,167.969,10.254,-46.875,136.230,-271.484
1701220172.050,211.914,12.207,-31.738,196.289,-231.934
1701220172.054,209.473,10.254,-25.391,155.762,-246.582
1701220172.058,124.023,10.254,-19.531,64.453,-310.059
1701220172.061,92.773,9.277,-20.996,58.594,-316.406
1701220172.065,87.891,8.789,-21.973,44.434,-253.418
1701220172.069,128.418,14.160,0.488,86.426,-230.957
1701220172.073,145.508,16.113,4.395,119.141,-273.926
1701220172.077,73.730,14.160,-10.742,40.039,-290.527
1701220172.077,20.508,11.230,-8.789,-5.859,-296.875
1701220172.081,45.898,13.672,-2.441,6.836,-266.602
1701220172.085,118.652,13.184,0.977,-11.230,-221.680
1701220172.089,59.570,9.766,13.672,-7.812,-258.301
1701220172.093,-104.980,4.883,26.367,-33.691,-261.230
1701220172.097,-115.234,-1.953,15.137,-92.773,-216.797
1701220172.101,-95.215,-21.973,17.090,-143.066,-231.445
1701220172.104,-69.336,-9.277,51.270,-127.930,-286.621
1701220172.108,-46.875,5.859,60.547,-87.891,-279.297
1701220172.112,-71.289,-17.090,41.016,-94.727,-277.832
1701220172.116,-77.637,-8.789,43.457,-120.117,-268.555
1701220172.120,-99.609,-7.324,53.711,-122.070,-272.949
1701220172.122,-123.535,-34.180,43.945,-104.492,-311.035
1701220172.126,-146.973,-41.992,41.504,-137.207,-281.250
1701220172.130,-122.070,-39.551,31.250,-204.102,-257.324
1701220172.134,-137.207,1.465,22.461,-210.938,-316.895
1701220172.138,-199.219,15.137,29.785,-196.777,-373.047
1701220172.142,-234.863,2.441,29.297,-176.270,-322.266
1701220172.146,-216.309,1.465,30.762,-184.570,-291.992
1701220172.149,-92.285,12.207,17.090,-227.539,-336.914
1701220172.153,-90.332,35.645,-0.488,-226.562,-381.348
1701220172.157,-256.836,40.039,-9.277,-308.594,-349.609
1701220172.161,-196.777,59.570,-9.277,-282.715,-302.246
1701220172.165,-161.133,71.289,-10.254,-197.266,-300.293
1701220172.169,-255.371,72.266,-18.066,-268.555,-332.520
1701220172.173,-163.574,88.379,-29.785,-275.879,-347.168
1701220172.177,-100.586,96.680,-27.832,-223.145,-312.012
1701220172.181,-185.059,98.633,-29.297,-208.984,-308.594
1701220172.185,-171.387,98.633,-30.273,-230.957,-336.426
1701220172.189,-185.059,95.215,-22.949,-169.434,-329.102
1701220172.193,-151.367,96.680,-30.762,-148.438,-291.992
1701220172.196,-41.992,96.191,-36.621,-148.438,-304.199
1701220172.200,-56.152,87.402,-25.879,-65.430,-318.359
1701220172.204,-82.520,71.777,-29.785,-69.824,-297.363
1701220172.208,-21.973,67.871,-26.855,-44.434,-264.648
1701220172.212,79.102,63.477,-23.438,39.062,-257.812
1701220172.227,104.492,44.922,-24.414,18.555,-252.441
1701220172.231,146.973,41.992,-24.414,13.672,-258.301
1701220172.235,149.414,30.762,-31.738,120.605,-251.953
1701220172.239,138.672,20.508,-33.203,187.012,-212.402
1701220172.243,249.023,25.391,-23.926,161.621,-208.008
1701220172.247,279.785,20.508,-27.832,196.777,-210.449
1701220172.251,289.062,19.043,-46.875,291.992,-172.852
1701220172.254,322.754,20.508,-53.223,288.086,-126.953
1701220172.258,326.660,9.766,-55.176,230.957,-79.102
1701220172.262,450.195,5.371,-59.082,333.984,-65.430
1701220172.266,393.555,3.906,-58.105,321.777,-65.918
1701220172.270,305.176,-1.953,-57.617,262.695,-55.176
1701220172.257,323.730,-7.812,-60.547,283.691,-26.367
1701220172.261,358.887,-17.090,-58.594,269.531,-46.387
1701220172.265,364.746,-23.438,-54.199,295.898,-117.676
1701220172.269,341.309,-29.785,-50.781,322.266,-120.117
1701220172.273,309.082,-34.668,-47.852,283.691,-70.312
1701220172.277,356.934,-38.086,-48.340,305.176,-80.566
1701220172.281,348.145,-41.992,-45.898,311.523,-151.367
1701220172.284,234.375,-50.293,-41.992,203.125,-160.156
1701220172.288,286.621,-47.363,-40.527,179.199,-147.949
1701220172.292,319.824,-40.039,-32.227,205.078,-166.504
1701220172.296,194.824,-56.641,-26.367,165.039,-263.184
1701220172.300,193.848,-61.035,-30.273,158.691,-277.832
1701220172.317,170.898,-48.828,-26.367,118.164,-216.797
1701220172.321,132.324,-46.387,-14.648,69.336,-240.234
1701220172.325,164.062,-46.387,0.000,59.082,-301.270
1701220172.329,75.684,-54.688,12.207,12.207,-340.820
1701220172.333,-43.457,-57.617,12.695,-5.371,-326.172
1701220172.337,-14.160,-47.852,29.297,-20.996,-324.707
1701220172.341,-17.090,-48.828,49.805,-97.656,-365.234
1701220172.344,-147.949,-64.941,45.898,-211.426,-395.508
1701220172.348,-210.449,-66.895,50.781,-229.004,-369.141
1701220172.352,-205.078,-64.941,52.246,-207.031,-354.004
1701220172.356,-148.926,-53.711,41.992,-213.379,-391.113
1701220172.360,-161.133,-39.062,39.062,-248.535,-419.434
1701220172.363,-224.121,-33.203,29.785,-238.281,-388.672
1701220172.367,-192.871,-21.973,16.113,-207.031,-365.234
1701220172.371,-197.754,-13.672,6.836,-206.055,-377.441
1701220172.375,-232.422,-0.977,2.930,-247.559,-420.898
1701220172.379,-269.043,1.953,8.789,-288.086,-412.109
1701220172.383,-281.738,-6.836,2.930,-263.672,-400.879
1701220172.387,-229.980,-7.324,-3.418,-263.184,-393.555
1701220172.390,-196.289,11.230,6.348,-249.512,-389.648
1701220172.394,-160.645,18.066,0.488,-209.961,-422.852
1701220172.398,-151.367,17.090,-2.930,-192.383,-418.457
1701220172.402,-124.023,27.832,-10.254,-177.734,-385.254
1701220172.406,-139.160,37.109,-18.555,-164.551,-371.094
1701220172.438,-208.984,40.527,-18.066,-182.129,-408.691
1701220172.442,-140.137,49.805,-31.250,-152.344,-407.227
1701220172.446,-61.523,55.664,-36.133,-104.980,-337.402
1701220172.450,-71.289,42.480,-22.949,-71.777,-355.469
1701220172.454,-86.914,36.133,-17.090,-70.312,-393.066
1701220172.458,-75.195,40.527,-12.207,-69.824,-365.234
1701220172.462,-64.941,38.574,-15.625,-59.570,-332.520
1701220172.465,77.637,43.945,-22.461,109.375,-300.293
1701220172.469,151.855,48.340,-22.949,126.465,-354.980
1701220172.473,6.836,44.434,-25.879,-44.434,-409.180
1701220172.477,-4.395,37.109,-27.832,35.156,-328.125
1701220172.481,130.859,37.109,-33.691,104.980,-261.719
1701220172.452,178.223,39.062,-43.945,154.785,-275.391
1701220172.456,175.781,34.180,-39.551,226.074,-297.363
1701220172.460,188.477,30.762,-35.645,198.730,-278.809
1701220172.464,145.996,19.531,-33.691,151.855,-253.906
1701220172.468,200.195,13.184,-29.297,240.723,-272.461
1701220172.472,241.211,17.578,-33.203,312.988,-287.598
1701220172.476,202.148,20.508,-34.668,230.469,-270.996
1701220172.479,233.887,21.484,-42.969,247.070,-219.727
1701220172.483,248.535,21.973,-42.969,275.879,-202.637
1701220172.487,277.344,28.809,-38.574,261.719,-225.098
1701220172.491,226.562,24.414,-38.574,281.250,-225.586
1701220172.495,173.828,18.066,-33.691,325.195,-223.633
1701220172.497,273.438,26.855,-38.086,283.691,-262.695
1701220172.501,256.836,25.879,-40.527,149.414,-301.270
1701220172.505,107.910,15.625,-34.668,178.711,-315.430
1701220172.509,131.836,19.531,-29.785,212.402,-313.477
1701220172.513,174.805,22.949,-26.855,167.480,-351.562
1701220172.517,146.973,19.531,-24.902,169.922,-398.926
1701220172.521,104.004,14.160,-19.531,161.621,-450.684
1701220172.524,62.012,19.043,-8.789,205.566,-543.945
1701220172.528,112.793,28.320,-8.789,167.480,-562.988
1701220172.532,83.496,16.602,-9.277,95.215,-491.699
1701220172.536,-17.090,9.766,-6.348,83.008,-416.504
1701220172.540,128.906,24.902,-12.207,67.871,-361.328
1701220172.572,44.434,22.461,-5.859,54.688,-385.254
1701220172.576,-94.238,8.301,3.418,17.090,-341.797
1701220172.580,-57.617,1.953,-1.953,-45.410,-309.082
1701220172.584,-100.098,3.906,-9.277,-67.871,-312.012
1701220172.588,-190.918,-0.977,1.465,-33.203,-248.047
1701220172.592,-167.480,-11.719,26.367,-152.832,-282.227
1701220172.596,-97.656,-14.648,26.855,-180.664,-274.414
1701220172.599,-185.059,-11.719,15.137,-141.602,-175.781
1701220172.603,-205.078,-9.766,5.859,-118.652,-172.363
1701220172.607,-183.594,-19.531,16.602,-102.051,-215.332
1701220172.611,-115.234,-28.320,35.156,-130.859,-183.105
1701220172.615,-209.961,-28.320,-0.488,-169.922,-186.035
1701220172.587,-254.395,-27.344,-27.344,-208.984,-216.797
1701220172.591,-192.871,-42.480,25.391,-171.387,-160.156
1701220172.595,-146.973,-62.012,55.176,-88.867,-124.512
1701220172.599,-69.824,-62.012,46.387,0.000,-141.113
1701220172.603,-97.168,-50.781,28.809,-31.250,-89.355
1701220172.607,-71.289,-52.734,18.555,-20.996,-45.898
1701220172.611,37.598,-50.781,4.883,35.645,-50.781
1701220172.614,74.219,-49.316,1.465,88.379,-95.703
1701220172.618,25.879,-58.105,1.465,163.574,-128.906
1701220172.622,9.766,-68.359,-4.395,148.926,-163.574
1701220172.626,115.234,-68.848,-7.324,110.840,-124.023
1701220172.630,165.527,-72.266,-10.254,138.184,-44.922
1701220172.633,106.445,-82.031,-11.230,186.523,-87.891
1701220172.637,128.906,-86.426,-25.391,193.359,-71.289
1701220172.641,136.719,-92.285,-39.551,207.031,34.668
1701220172.645,200.684,-100.586,-28.320,249.023,-17.578
1701220172.649,268.066,-102.051,-26.367,178.711,-33.691
1701220172.653,168.945,-114.258,-23.438,185.547,-58.594
1701220172.657,97.656,-132.324,-11.719,220.703,-116.211
1701220172.660,178.711,-135.742,-19.531,208.496,-74.219
1701220172.664,170.410,-139.160,-30.273,181.152,-75.684
1701220172.668,198.242,-138.184,-24.902,208.008,-45.898
1701220172.672,193.359,-139.648,-20.508,248.535,-20.996
1701220172.676,205.078,-135.742,-22.949,201.660,-91.309
1701220172.677,172.363,-137.695,-20.996,171.387,-44.434
1701220172.681,125.977,-134.277,-20.508,150.879,-12.207
1701220172.685,189.941,-120.117,-23.926,160.645,-6.836
1701220172.689,159.668,-115.234,-23.438,132.324,37.109
1701220172.693,199.219,-103.027,-15.625,231.934,18.555
1701220172.697,176.758,-92.773,-18.066,205.078,33.203
1701220172.701,47.852,-94.238,-20.508,69.824,0.488
1701220172.704,81.055,-87.402,-20.508,88.379,-32.227
1701220172.708,198.730,-74.707,-21.973,186.523,25.391
1701220172.712,164.551,-68.359,-26.855,134.277,-17.578
1701220172.716,92.773,-61.523,-30.273,15.137,-42.480
1701220172.720,136.230,-61.035,-22.461,101.562,5.371
1701220172.737,108.887,-65.918,-17.090,138.184,11.719
1701220172.741,142.090,-57.129,-15.137,76.172,27.344
1701220172.745,125.000,-50.781,-14.648,116.211,6.348
1701220172.749,4.883,-62.012,-16.113,144.531,-20.508
1701220172.753,89.844,-63.965,-13.184,63.477,-0.488
1701220172.757,172.363,-59.570,-10.254,65.430,-0.977
1701220172.761,105.469,-59.570,-8.301,82.031,-58.594
1701220172.764,42.480,-60.059,-9.277,72.754,1.465
1701220172.768,28.809,-59.570,-6.836,95.703,52.734
1701220172.772,154.297,-49.805,-9.766,113.281,8.789
1701220172.776,247.070,-39.062,-8.789,193.359,30.273
1701220172.780,48.340,-45.898,-0.488,124.023,23.926
1701220172.812,4.883,-48.828,-15.625,-11.230,30.762
1701220172.816,128.906,-45.898,-11.719,104.492,49.316
1701220172.820,181.641,-37.109,6.836,177.246,25.879
1701220172.824,130.371,-39.551,4.395,95.215,36.133
1701220172.828,60.059,-52.246,10.742,86.426,19.043
1701220172.832,82.520,-55.664,15.137,108.398,-13.672
1701220172.836,127.930,-52.246,14.160,122.070,-20.020
1701220172.839,38.086,-59.570,16.113,75.195,-10.742
1701220172.843,48.340,-68.359,16.602,211.426,20.020
1701220172.847,150.879,-57.129,17.578,177.246,9.277
1701220172.851,34.180,-55.176,6.348,-62.988,36.621
1701220172.855,29.297,-52.734,-1.465,32.227,69.824
1701220172.846,110.352,-41.992,2.441,146.484,23.438
1701220172.850,131.348,-52.734,10.254,175.293,55.176
1701220172.854,220.703,-64.941,3.906,182.129,40.527
1701220172.858,69.336,-77.148,-3.906,68.848,-0.977
1701220172.862,-8.301,-91.797,4.395,141.602,27.832
1701220172.866,71.289,-93.262,7.812,194.336,44.434
1701220172.870,148.438,-84.473,0.977,92.285,65.430
1701220172.873,187.500,-92.285,7.812,150.391,90.820
1701220172.877,148.926,-90.820,14.648,102.539,75.195
1701220172.881,113.281,-89.355,12.207,110.352,56.152
1701220172.885,41.504,-109.375,3.418,84.473,87.402
1701220172.889,138.672,-102.539,3.418,178.711,78.613
1701220172.873,12.207,-108.887,12.207,95.703,33.691
1701220172.877,118.652,-106.934,10.254,71.289,41.992
1701220172.881,202.148,-100.098,5.859,222.168,102.051
1701220172.885,13.672,-117.188,0.977,61.523,109.375
1701220172.889,138.184,-117.676,1.465,72.266,97.656
1701220172.893,78.125,-101.562,8.789,126.465,145.508
1701220172.897,-49.316,-89.844,12.695,-0.488,182.617
1701220172.900,26.855,-88.379,16.602,59.082,182.129
1701220172.904,172.363,-47.852,8.301,178.711,144.043
1701220172.908,81.055,-20.996,20.508,81.055,200.684
1701220172.912,46.387,-56.152,22.949,66.406,283.691
1701220172.916,93.750,-65.918,0.488,50.293,252.930
1701220172.947,57.129,-33.203,10.254,67.383,206.543
1701220172.951,94.238,-32.715,35.156,160.645,232.910
1701220172.955,39.551,-20.996,41.016,4.883,321.777
1701220172.959,57.617,29.785,33.203,60.547,332.031
1701220172.963,23.438,55.176,21.973,28.809,258.789
1701220172.967,-34.668,52.246,25.391,-5.371,269.531
1701220172.971,15.625,58.105,32.715,49.805,320.312
1701220172.974,139.160,56.152,31.250,0.977,297.363
1701220172.978,77.637,65.430,31.738,94.727,270.020
1701220172.982,-93.262,93.262,25.391,89.355,262.207
1701220172.986,-2.930,113.281,26.855,-20.996,283.203
1701220172.990,85.449,125.488,27.344,47.363,318.359
1701220172.962,77.148,146.484,15.625,73.242,293.945
1701220172.966,-46.875,158.203,9.766,-49.805,243.164
1701220172.970,30.273,163.574,15.625,35.645,246.582
1701220172.974,87.402,169.922,6.836,69.824,276.367
1701220172.978,32.227,171.387,0.000,46.875,249.512
1701220172.982,-10.254,167.969,1.953,80.078,236.816
1701220172.986,-114.746,157.715,-1.465,-40.039,257.812
1701220172.989,107.422,159.668,-2.930,44.922,281.250
1701220172.993,95.703,143.066,0.977,100.098,279.785
1701220172.997,-98.145,131.836,-1.953,-53.223,236.328
1701220173.001,-84.961,132.812,-18.555,-51.758,214.844
1701220173.005,17.578,117.188,-19.043,106.445,239.746
1701220173.037,73.242,111.328,-1.953,91.309,270.508
1701220173.041,30.762,99.121,1.953,-46.387,251.465
1701220173.045,20.508,76.660,-0.488,5.859,189.941
1701220173.049,-99.121,56.152,6.348,19.531,183.594
1701220173.053,-94.238,41.992,8.789,41.504,236.328
1701220173.057,48.828,53.223,-2.441,-12.695,219.727
1701220173.061,89.844,67.871,-7.324,104.492,188.477
1701220173.064,8.789,52.734,-12.207,44.434,193.359
1701220173.068,-112.793,58.594,-16.602,-97.656,246.094
1701220173.072,-45.898,50.293,-3.418,0.977,227.539
1701220173.076,106.934,3.418,7.324,122.559,191.406
1701220173.080,16.113,-11.230,10.254,80.566,183.594
1701220173.098,-108.398,17.578,-5.371,-96.191,202.148
1701220173.102,-12.207,30.273,-17.090,-43.945,232.422
1701220173.106,156.250,-6.348,9.277,148.438,154.297
1701220173.110,63.477,13.184,15.625,136.719,127.441
1701220173.114,-51.758,48.340,5.371,-48.828,178.711
1701220173.118,-53.711,78.613,3.906,-9.766,204.102
1701220173.122,79.102,91.797,8.301,100.586,190.430
1701220173.125,140.625,133.301,7.812,159.180,183.105
1701220173.129,-45.410,158.203,-3.418,21.973,212.891
1701220173.133,-18.066,215.820,-8.789,-12.695,263.672
1701220173.137,66.895,275.879,2.441,74.219,267.578
1701220173.141,7.324,282.715,15.625,41.504,231.445
1701220173.101,19.531,318.848,18.066,-17.578,257.812
1701220173.105,-18.555,374.512,23.438,128.418,322.754
1701220173.109,116.699,433.105,18.066,97.656,303.223
1701220173.113,104.980,507.324,13.184,-39.551,320.312
1701220173.117,-83.008,577.148,20.996,42.969,393.555
1701220173.121,5.859,662.109,18.555,66.895,424.805
1701220173.125,9.277,729.980,21.484,-17.578,424.805
1701220173.128,-30.762,783.203,29.297,19.043,416.504
1701220173.132,21.484,846.191,32.227,52.734,419.434
1701220173.136,-65.430,898.926,37.109,-38.574,434.082
1701220173.140,-125.000,939.941,37.598,-101.074,470.703
1701220173.144,-13.672,976.074,38.086,-34.668,472.168
1701220173.188,-116.699,984.863,45.898,0.488,433.105
1701220173.192,-215.332,976.562,49.316,-92.285,457.031
1701220173.196,-175.293,964.355,52.246,-123.047,513.672
1701220173.200,-83.496,938.477,57.617,-14.648,502.441
1701220173.204,-102.539,916.992,53.223,-84.961,474.609
1701220173.208,-192.383,888.184,44.922,-198.242,469.727
1701220173.212,-160.645,852.539,48.340,-142.090,490.234
1701220173.215,-236.816,799.316,57.129,-45.410,529.785
1701220173.219,-228.027,740.234,55.176,-83.984,475.586
1701220173.223,-163.086,691.406,46.387,-200.684,454.590
1701220173.227,-162.598,625.488,45.898,-120.605,515.137
1701220173.231,-62.988,544.434,44.434,-29.785,509.277
1701220173.263,-69.824,435.547,40.039,-91.309,464.844
1701220173.267,-144.043,308.594,40.039,-89.355,434.082
1701220173.271,-107.422,192.871,39.062,62.012,457.520
1701220173.275,-43.945,86.426,27.832,41.016,474.609
1701220173.279,6.836,-0.488,18.555,-50.293,412.598
1701220173.283,-3.418,-83.008,16.602,26.855,373.535
1701220173.287,19.531,-165.039,18.555,117.676,392.578
1701220173.290,-18.555,-249.512,14.648,89.355,388.672
1701220173.294,15.625,-319.336,2.441,44.434,360.352
1701220173.298,164.551,-370.605,-5.859,95.703,344.238
1701220173.302,57.617,-422.852,-2.930,129.883,341.797
1701220173.306,42.480,-458.008,-0.488,215.820,359.375
1701220173.268,174.805,-492.676,-7.324,152.832,353.516
1701220173.272,64.941,-527.344,-5.859,97.656,296.875
1701220173.276,26.855,-543.457,-1.953,194.824,282.227
1701220173.280,117.676,-543.457,-5.859,144.531,300.781
1701220173.284,104.492,-550.293,-4.883,88.867,294.434
1701220173.288,90.820,-558.594,-4.883,123.047,262.695
1701220173.292,212.891,-539.551,-11.230,251.465,233.398
1701220173.295,171.387,-524.902,-14.648,217.285,248.535
1701220173.299,59.082,-517.090,-15.137,60.547,248.047
1701220173.303,92.773,-501.953,-13.672,123.047,216.797
1701220173.307,177.246,-481.445,-11.230,198.730,176.270
1701220173.311,205.566,-458.008,-13.184,144.043,179.199
1701220173.294,140.625,-446.289,-14.160,132.324,219.238
1701220173.298,126.953,-439.941,-11.230,141.602,209.473
1701220173.302,152.832,-426.270,-11.230,152.832,148.438
1701220173.306,91.797,-419.434,-11.719,157.715,117.188
1701220173.310,20.020,-412.598,-13.184,69.824,144.043
1701220173.314,97.168,-403.809,-15.137,72.754,140.625
1701220173.318,130.371,-396.484,-12.695,82.520,110.840
1701220173.321,166.016,-388.184,-11.719,153.320,67.871
1701220173.325,155.762,-380.859,-12.695,167.480,74.219
1701220173.329,107.422,-365.234,-14.648,118.164,81.055
1701220173.333,84.961,-353.516,-7.812,136.719,42.480
1701220173.337,41.992,-350.586,-2.930,113.281,5.371
1701220173.367,93.750,-341.309,-2.441,138.184,-16.602
1701220173.371,154.785,-329.102,-9.766,94.238,21.973
1701220173.375,81.543,-323.242,-9.277,56.152,33.691
1701220173.379,89.355,-314.453,-0.977,120.605,-2.930
1701220173.383,89.355,-304.688,-9.766,130.859,31.250
1701220173.387,46.387,-298.340,-11.719,99.609,51.758
1701220173.391,87.402,-294.434,-10.254,45.410,2.930
1701220173.394,44.434,-291.504,-8.789,47.852,-72.266
1701220173.398,28.320,-280.762,-7.324,81.055,-95.215
1701220173.402,137.695,-260.742,-7.324,139.648,-22.461
1701220173.406,118.652,-250.488,-8.789,108.887,-38.574
1701220173.410,-10.742,-247.070,-13.184,-31.738,-120.117
1701220173.382,46.387,-239.258,-7.812,85.449,-119.141
1701220173.386,76.660,-238.281,-1.465,116.211,-92.285
1701220173.390,50.781,-238.770,1.953,27.832,-96.191
1701220173.394,62.988,-231.934,1.465,52.246,-109.863
1701220173.398,85.938,-228.516,-3.418,48.828,-139.648
1701220173.402,45.410,-217.285,-4.883,9.766,-144.043
1701220173.406,59.570,-205.078,-2.441,85.938,-153.320
1701220173.409,77.637,-203.613,-3.906,93.262,-196.289
1701220173.413,83.008,-193.359,-5.371,19.043,-211.426
1701220173.417,77.637,-178.711,-3.418,60.547,-204.102
1701220173.421,41.016,-178.223,-2.441,87.402,-194.824
1701220173.425,32.227,-178.711,-3.418,77.637,-221.680
1701220173.442,116.211,-169.434,-1.465,89.355,-264.648
1701220173.446,97.656,-162.109,2.930,90.820,-290.527
1701220173.450,11.719,-160.645,2.930,53.711,-270.996
1701220173.454,20.020,-160.156,0.977,26.855,-210.938
1701220173.458,28.320,-158.203,5.371,22.461,-223.633
1701220173.462,39.062,-156.738,10.742,30.273,-270.020
1701220173.466,61.035,-156.250,10.254,89.355,-247.070
1701220173.469,58.105,-154.785,9.766,115.723,-207.520
1701220173.473,52.734,-143.555,4.883,32.715,-261.230
1701220173.477,6.348,-134.277,5.371,16.113,-303.223
1701220173.481,41.992,-130.859,3.906,105.469,-280.273
1701220173.485,69.336,-137.695,-1.953,78.125,-239.746
1701220173.487,-8.789,-147.461,-0.488,39.062,-213.867
1701220173.491,70.312,-132.324,0.977,21.973,-238.770
1701220173.495,98.633,-118.652,0.977,30.762,-229.980
1701220173.499,91.309,-115.723,6.836,135.742,-205.078
1701220173.503,59.570,-111.328,4.395,8.789,-224.609
1701220173.507,-4.395,-114.258,-1.465,-23.926,-246.582
1701220173.511,44.434,-114.746,7.812,75.684,-256.348
1701220173.514,103.027,-111.328,10.254,63.477,-226.562
1701220173.518,66.406,-120.117,12.695,124.512,-186.523
1701220173.522,29.785,-125.488,12.207,24.902,-223.633
1701220173.526,16.602,-121.094,10.254,-45.898,-236.816
1701220173.530,37.109,-123.047,20.020,7.812,-186.035
1701220173.533,3.906,-125.488,17.090,-10.742,-172.852
1701220173.537,0.977,-119.629,11.230,20.020,-213.379
1701220173.541,97.656,-104.492,3.906,41.504,-239.746
1701220173.545,41.016,-97.656,-1.465,46.875,-226.074
1701220173.549,11.230,-102.051,4.395,30.273,-186.523
1701220173.553,110.352,-101.074,5.371,39.551,-160.156
1701220173.557,112.305,-100.586,12.207,86.426,-198.730
1701220173.560,39.551,-103.516,13.672,133.789,-193.359
1701220173.564,0.977,-101.562,-1.953,8.789,-136.719
1701220173.568,77.148,-96.680,-4.395,-30.273,-156.250
1701220173.572,99.609,-100.586,-1.465,23.926,-152.832
1701220173.576,-58.105,-110.840,-2.930,-32.715,-111.328
1701220173.593,-23.438,-108.887,1.465,-3.906,-97.656
1701220173.597,66.895,-107.910,6.348,83.496,-78.125
1701220173.601,139.648,-102.539,4.395,104.492,-80.566
1701220173.605,201.172,-96.191,0.488,-24.902,-112.305
1701220173.609,48.340,-103.027,6.836,50.293,-76.172
1701220173.613,-64.941,-104.492,7.812,72.754,-38.086
1701220173.617,-4.395,-102.539,4.395,-7.812,-80.566
1701220173.620,43.945,-94.727,4.883,1.465,-94.727
1701220173.624,59.082,-89.355,5.371,52.734,-94.238
1701220173.628,59.570,-86.914,-0.977,49.316,-76.172
1701220173.632,72.754,-86.914,-2.930,62.012,-65.918
1701220173.636,81.055,-86.914,6.348,82.520,-100.098
1701220173.622,81.055,-82.031,0.488,4.395,-98.633
1701220173.626,78.613,-79.102,-4.883,30.273,-90.820
1701220173.630,37.109,-81.543,0.977,74.219,-98.145
1701220173.634,-0.488,-82.520,2.930,-28.320,-114.258
1701220173.638,-20.020,-78.125,1.953,-18.066,-123.047
1701220173.642,41.504,-78.125,2.441,48.340,-102.539
1701220173.646,67.871,-72.754,6.348,56.641,-56.152
1701220173.649,44.922,-61.523,0.488,-5.371,-73.730
1701220173.653,74.219,-52.734,-1.953,14.648,-120.117
1701220173.657,55.176,-50.781,-2.441,42.969,-112.793
1701220173.661,2.441,-57.129,-0.488,-45.410,-77.148
1701220173.665,26.367,-58.594,7.324,16.113,-97.168
1701220173.667,104.980,-40.527,-2.441,57.617,-184.570
1701220173.671,57.129,-28.320,-7.324,-4.395,-159.668
1701220173.675,-0.488,-36.133,-3.906,-0.977,-76.660
1701220173.679,53.223,-31.250,-11.230,-39.062,-83.984
1701220173.683,22.461,-22.949,-12.207,-45.898,-110.840
1701220173.687,-4.883,-22.949,-5.859,13.672,-125.488
1701220173.691,47.852,-20.508,0.488,101.074,-90.820
1701220173.694,91.797,-19.043,5.371,46.387,-67.383
1701220173.698,75.195,-20.508,1.465,-26.367,-128.418
1701220173.702,27.344,-18.555,-2.930,8.789,-135.254
1701220173.706,71.289,-9.766,-1.953,32.227,-75.195
1701220173.710,113.281,-10.254,-6.836,56.641,-44.922
1701220173.727,30.273,-13.184,-4.883,34.180,-59.082
1701220173.731,62.012,-3.418,0.488,4.883,-97.656
1701220173.735,88.867,-1.465,1.465,108.398,-83.008
1701220173.739,19.531,0.977,2.441,70.801,-48.828
1701220173.743,31.738,2.441,4.395,-25.391,-67.383
1701220173.747,56.641,-5.859,0.977,14.648,-102.051
1701220173.751,67.871,3.418,-4.395,33.691,-98.633
1701220173.754,71.777,15.137,0.000,47.852,-38.086
1701220173.758,85.938,12.695,-0.488,74.707,-29.297
1701220173.762,48.828,4.395,2.930,98.633,-44.922
1701220173.766,-20.996,-2.930,8.301,46.387,-28.809
1701220173.770,0.488,5.371,6.348,-0.977,-26.855
1701220173.758,43.457,15.137,2.441,23.926,25.879
1701220173.762,68.848,14.648,0.000,9.277,-2.930
1701220173.766,61.523,19.531,4.395,46.875,-88.379
1701220173.770,50.293,26.367,4.883,61.035,-31.738
1701220173.774,27.344,19.043,0.977,78.613,45.898
1701220173.778,22.949,13.184,4.395,63.477,37.598
1701220173.782,47.852,22.461,8.789,-2.930,2.930
1701220173.785,21.484,21.973,11.230,20.508,-0.977
1701220173.789,8.789,21.484,6.348,22.949,40.039
1701220173.793,67.383,24.414,6.348,61.035,69.336
1701220173.797,49.805,14.648,13.184,82.031,22.461
1701220173.801,-14.160,11.230,9.766,41.016,6.836
1701220173.804,10.742,20.508,3.418,39.551,78.613
1701220173.808,32.715,24.902,1.953,16.602,69.824
1701220173.812,42.480,23.438,6.836,27.832,36.133
1701220173.816,41.016,18.066,8.301,46.875,59.082
1701220173.820,64.453,22.461,2.441,101.074,98.633
1701220173.824,66.895,26.855,3.418,115.723,105.957
1701220173.828,-19.531,17.090,10.254,1.953,67.871
1701220173.831,-8.301,19.531,8.789,15.137,35.645
1701220173.835,62.012,24.414,6.836,37.598,110.840
1701220173.839,79.102,20.020,5.859,83.008,162.109
1701220173.843,96.680,20.020,12.207,189.941,111.816
1701220173.847,-12.695,13.672,11.230,54.199,78.613
1701220173.863,-78.613,6.836,0.488,-41.504,113.770
1701220173.867,-2.930,12.695,-2.441,29.785,145.020
1701220173.871,25.879,18.555,3.418,44.922,142.578
1701220173.875,61.035,19.043,9.766,52.246,134.766
1701220173.879,95.215,23.438,4.883,103.516,162.109
1701220173.883,10.254,20.020,7.812,110.352,171.875
1701220173.887,1.465,18.555,9.766,47.852,131.348
1701220173.890,18.555,26.855,3.906,40.527,110.352
1701220173.894,49.805,31.738,5.371,85.938,137.695
1701220173.898,57.129,27.344,7.812,88.379,137.695
1701220173.902,51.270,25.391,3.418,111.328,132.324
1701220173.906,158.203,39.551,-5.371,90.332,134.277
1701220173.907,63.965,37.598,-3.418,11.719,120.117
1701220173.911,-58.105,23.926,8.789,40.039,148.926
1701220173.915,-11.230,21.484,12.695,80.566,175.293
1701220173.919,26.855,22.949,10.254,57.617,139.648
1701220173.923,41.504,29.785,9.766,93.262,81.055
1701220173.927,24.414,32.227,7.324,70.312,76.172
1701220173.931,56.641,33.203,5.859,28.320,113.770
1701220173.934,58.105,33.203,11.719,97.656,111.816
1701220173.938,51.270,38.574,7.324,95.215,83.496
1701220173.942,29.297,35.156,2.441,48.828,12.695
1701220173.946,8.789,35.645,1.465,12.207,44.922
1701220173.950,90.820,37.598,-3.906,41.504,78.613
1701220173.952,15.625,30.273,-4.883,69.824,37.598
1701220173.956,-62.500,27.832,4.395,49.316,56.152
1701220173.960,-3.906,29.785,4.883,42.480,98.145
1701220173.964,14.160,30.273,3.906,19.531,125.000
1701220173.968,17.090,30.273,6.348,34.668,108.887
1701220173.972,32.227,29.297,9.277,62.988,48.340
1701220173.976,65.918,30.762,7.812,63.477,43.945
1701220173.979,36.133,31.250,0.488,44.434,79.590
1701220173.983,-24.902,24.902,2.441,70.801,72.754
1701220173.987,35.156,30.273,2.930,95.703,15.625
1701220173.991,57.617,30.762,0.977,31.738,24.414
1701220173.995,-12.207,20.508,6.836,54.688,83.984
1701220174.027,74.707,25.391,6.836,67.383,66.895
1701220174.031,95.703,29.785,4.395,26.855,12.695
1701220174.035,-27.344,28.320,3.906,37.109,44.922
1701220174.039,-32.715,28.320,5.371,38.574,73.730
1701220174.043,14.648,22.949,9.277,38.574,84.961
1701220174.047,59.570,23.926,4.883,48.340,62.012
1701220174.051,70.312,23.926,1.953,71.289,14.648
1701220174.054,5.371,16.602,3.906,61.523,27.344
1701220174.058,0.977,14.648,6.348,52.246,40.039
1701220174.062,62.012,20.020,0.488,51.758,25.879
1701220174.066,49.805,23.926,-2.441,45.410,7.324
1701220174.070,-11.230,24.902,6.348,27.832,36.133
1701220174.057,18.066,22.461,10.254,87.402,81.543
1701220174.061,18.555,11.719,5.371,78.613,102.539
1701220174.065,-14.160,17.578,3.906,11.719,57.129
1701220174.069,-7.324,23.926,6.836,31.738,46.387
1701220174.073,62.500,22.949,6.836,70.312,89.844
1701220174.077,80.566,21.484,4.883,44.434,86.426
1701220174.081,26.855,16.602,14.160,86.914,45.898
1701220174.084,21.484,21.973,15.625,76.660,46.875
1701220174.088,2.930,20.996,-1.465,-16.113,98.145
1701220174.092,-16.113,20.020,-9.277,15.137,104.492
1701220174.096,30.762,21.973,-1.953,0.977,65.918
1701220174.100,62.012,19.531,2.930,27.344,47.852
1701220174.090,58.594,16.602,0.000,114.746,111.328
1701220174.094,35.645,12.207,9.277,102.051,145.508
1701220174.098,-53.223,9.766,9.766,12.207,98.145
1701220174.102,-41.016,13.184,-3.418,1.465,47.852
1701220174.106,17.090,13.672,0.488,29.785,49.316
1701220174.110,36.133,14.648,4.395,47.852,103.027
1701220174.114,44.922,13.672,-1.465,60.059,117.188
1701220174.117,62.012,13.184,-1.953,51.270,69.824
1701220174.121,64.941,17.578,0.000,75.684,79.102
1701220174.125,26.367,18.555,6.836,78.613,139.160
1701220174.129,1.953,20.020,7.812,29.297,131.836
1701220174.133,3.906,18.555,1.953,34.180,63.477
1701220174.132,46.875,22.461,0.488,100.586,58.594
1701220174.136,48.828,30.273,1.465,27.344,119.141
1701220174.140,7.324,26.855,0.977,11.719,124.023
1701220174.144,31.738,26.855,-1.953,23.926,67.383
1701220174.148,31.738,28.320,-2.441,-4.883,55.664
1701220174.152,7.324,27.832,3.418,15.625,89.844
1701220174.156,20.508,26.367,0.977,35.156,94.727
1701220174.159,61.523,28.809,4.395,92.773,58.594
1701220174.163,32.227,32.715,9.277,44.922,46.387
1701220174.167,-21.973,23.438,3.906,-18.555,108.398
1701220174.171,-25.391,24.902,3.418,20.508,146.484
1701220174.175,42.480,34.180,3.418,61.523,87.891
1701220174.192,89.844,40.039,4.883,87.891,72.266
1701220174.196,31.738,43.945,5.371,73.730,106.934
1701220174.200,-28.320,46.387,-1.953,12.695,107.422
1701220174.204,-37.109,45.898,-5.371,-9.766,117.188
1701220174.208,8.301,44.922,2.930,-2.930,87.891
1701220174.212,76.660,45.898,8.789,38.086,58.594
1701220174.216,-1.953,42.969,3.906,49.805,90.820
1701220174.219,-51.270,42.969,-1.465,9.277,137.695
1701220174.223,24.902,45.898,5.371,2.930,105.469
1701220174.227,30.762,47.363,8.789,32.715,53.711
1701220174.231,-6.348,48.340,10.742,73.242,74.219
1701220174.235,65.430,57.617,10.742,100.098,122.070
1701220174.237,110.352,63.477,10.254,60.059,66.895
1701220174.241,-8.301,49.316,7.324,-0.488,13.184
1701220174.245,-27.832,41.504,3.906,15.625,66.895
1701220174.249,3.418,49.805,7.324,67.871,87.891
1701220174.253,-1.465,55.664,6.836,28.320,68.359
1701220174.257,37.109,51.270,3.418,-19.043,0.488
1701220174.261,41.016,43.457,8.301,59.082,-9.277
1701220174.264,-32.715,39.551,9.277,109.863,44.434
1701220174.268,-18.555,45.410,5.859,5.859,45.898
1701220174.272,23.926,47.363,5.371,-15.137,-8.301
1701220174.276,16.602,45.898,4.395,15.625,-59.082
1701220174.280,-17.090,43.945,1.465,30.762,14.648
1701220174.283,-14.160,46.387,2.930,30.273,34.668
1701220174.287,24.414,44.434,5.859,51.270,-29.785
1701220174.291,39.551,45.410,0.000,70.801,-28.320
1701220174.295,25.391,49.805,-2.441,36.133,13.184
1701220174.299,-6.836,47.363,0.488,9.766,25.879
1701220174.303,-9.277,43.945,2.930,13.672,-9.277
1701220174.307,21.973,50.293,8.789,6.348,-73.242
1701220174.310,0.000,55.176,8.301,-20.996,-68.359
1701220174.314,7.324,52.246,0.000,-6.836,-27.832
1701220174.318,63.965,53.223,1.465,8.789,-40.527
1701220174.322,44.922,52.734,3.906,58.594,-82.031
1701220174.326,-3.418,57.129,-6.836,34.668,-84.473
1701220174.343,-22.949,63.965,-12.207,-36.621,-15.625
1701220174.347,-12.695,58.105,-0.977,-6.836,15.137
1701220174.351,13.672,61.035,1.953,17.578,-43.457
1701220174.355,3.418,70.801,0.977,41.016,-73.242
1701220174.359,30.273,74.219,0.977,60.059,-32.227
1701220174.363,44.922,72.266,-3.418,25.879,-18.066
1701220174.367,19.531,70.312,-3.906,-10.742,-53.223
1701220174.370,-1.465,75.684,2.930,-18.555,-63.965
1701220174.374,-3.418,80.078,4.883,40.039,-55.664
1701220174.378,-3.906,88.867,2.930,51.270,-36.621
1701220174.382,37.109,106.445,0.488,-5.371,-29.297
1701220174.386,71.289,122.070,1.465,33.691,-60.059
1701220174.372,-3.418,131.836,-0.488,19.531,-66.895
1701220174.376,-6.348,141.602,0.488,-9.277,-24.414
1701220174.380,42.480,149.902,2.930,1.953,-19.043
1701220174.384,41.016,152.344,4.883,19.531,-59.570
1701220174.388,21.484,156.738,8.301,47.852,-69.824
1701220174.392,9.277,161.621,7.812,30.273,-24.414
1701220174.396,-28.320,157.227,1.953,10.254,-5.859
1701220174.399,13.184,161.133,-1.465,1.953,-52.734
1701220174.403,35.645,171.387,1.465,22.461,-72.754
1701220174.407,-15.137,172.363,4.395,39.062,-60.059
1701220174.411,27.832,169.922,6.348,15.625,-43.457
1701220174.415,106.445,176.758,11.230,38.574,-73.730
1701220174.417,32.227,182.129,12.695,21.484,-122.559
1701220174.421,-56.152,180.176,3.418,-9.766,-61.523
1701220174.425,-25.391,175.293,-4.883,23.926,2.441
1701220174.429,8.789,176.270,-2.930,19.531,-45.410
1701220174.433,24.414,183.594,-1.953,-14.648,-106.934
1701220174.437,52.734,187.500,-2.441,6.348,-109.375
1701220174.441,32.715,189.941,2.930,40.527,-48.828
1701220174.444,15.137,190.430,4.883,60.059,-60.059
1701220174.448,91.309,195.801,7.812,61.523,-140.137
1701220174.452,46.387,198.730,1.465,31.250,-120.605
1701220174.456,-34.180,194.336,-1.465,4.395,-62.988
1701220174.460,-3.418,190.918,4.395,-9.277,-71.289
1701220174.462,20.020,190.430,3.418,3.906,-113.770
1701220174.466,44.434,187.500,3.906,84.473,-125.488
1701220174.470,-1.465,183.105,4.883,64.453,-91.309
1701220174.474,-14.648,187.012,3.906,-15.137,-52.246
1701220174.478,24.414,185.547,6.348,-23.438,-83.496
1701220174.482,-1.465,180.176,8.301,-4.395,-128.906
1701220174.486,-25.879,176.758,6.836,18.066,-111.328
1701220174.489,22.461,175.781,5.371,12.695,-81.543
1701220174.493,59.570,174.805,1.953,3.906,-92.285
1701220174.497,8.301,170.410,2.441,32.227,-135.254
1701220174.501,0.977,167.480,4.883,33.691,-128.906
1701220174.505,25.391,168.457,0.000,5.859,-104.492
1701220174.508,18.555,167.969,0.488,15.137,-99.121
1701220174.512,20.996,165.527,7.324,28.809,-114.258
1701220174.516,6.836,167.480,3.906,14.648,-132.324
1701220174.520,-12.695,171.387,-2.441,4.883,-68.848
1701220174.524,8.301,171.875,0.977,3.418,-62.500
1701220174.528,6.348,169.434,4.395,-3.906,-147.949
1701220174.532,5.371,170.898,3.418,15.137,-179.688
1701220174.535,-2.441,171.387,1.465,32.227,-112.793
1701220174.539,-3.418,169.922,-2.930,8.301,-50.293
1701220174.543,25.391,165.039,-0.488,26.855,-91.797
1701220174.547,33.203,164.551,-3.418,32.227,-121.582
1701220174.551,-10.254,168.457,-7.324,-18.555,-88.867
1701220174.554,-39.062,166.504,-1.465,42.969,-42.480
1701220174.558,15.137,170.410,-2.441,41.992,-62.500
1701220174.562,56.641,178.711,-3.418,-44.922,-130.859
1701220174.566,5.859,180.664,-0.488,-24.414,-144.043
1701220174.570,-39.062,180.664,-1.953,-29.785,-89.844
1701220174.574,0.000,185.547,0.977,-33.691,-62.500
1701220174.578,13.672,190.430,5.371,-20.508,-140.625
1701220174.581,-10.254,191.406,1.465,18.555,-169.434
1701220174.585,2.930,197.266,-6.348,1.953,-85.938
1701220174.589,18.066,197.266,-6.348,-30.273,-48.828
1701220174.593,15.137,196.289,-7.324,-11.719,-87.402
1701220174.597,14.648,199.707,-11.230,-20.996,-130.371
1701220174.613,-7.812,199.707,-6.348,-30.273,-78.613
1701220174.617,2.441,202.637,-4.883,-4.395,-24.414
1701220174.621,14.160,205.078,-1.953,13.672,-70.312
1701220174.625,12.695,203.613,-0.488,-8.301,-119.629
1701220174.629,3.418,201.660,-1.953,-4.883,-131.836
1701220174.633,-26.855,201.172,1.465,22.949,-107.910
1701220174.637,-5.371,203.125,-0.977,-16.602,-121.094
1701220174.640,10.254,199.219,-4.883,9.277,-130.859
1701220174.644,14.160,197.266,-6.348,45.410,-97.168
1701220174.648,36.621,204.102,-10.742,-22.949,-61.035
1701220174.652,-3.906,196.777,-6.836,-7.812,-38.574
1701220174.656,5.371,191.406,-7.324,-17.578,-74.707
1701220174.657,-7.812,190.918,-7.812,-12.695,-106.934
1701220174.661,-5.371,186.523,-3.906,18.555,-69.336
1701220174.665,38.086,181.152,-6.836,-15.137,-53.223
1701220174.669,23.438,172.852,-2.441,-8.301,-107.910
1701220174.673,4.395,167.480,-0.977,26.855,-133.789
1701220174.677,-15.625,163.574,-6.348,14.160,-82.031
1701220174.681,27.832,166.504,-6.348,11.230,-63.965
1701220174.684,55.176,163.086,-7.812,20.020,-86.914
1701220174.688,29.297,157.227,-9.766,19.043,-123.047
1701220174.692,-10.742,153.809,-9.766,-12.207,-137.207
1701220174.696,10.742,145.020,-9.766,23.438,-76.172
1701220174.700,37.109,140.137,-5.859,77.148,-63.477
1701220174.702,-1.953,129.883,-8.789,0.488,-101.074
1701220174.706,-0.488,122.070,-14.648,-46.387,-93.262
1701220174.710,2.441,119.629,-12.207,-11.719,-70.801
1701220174.714,24.902,113.281,-8.301,11.719,-45.410
1701220174.718,71.289,106.445,-11.230,13.184,-60.059
1701220174.722,29.297,104.492,-10.742,10.742,-103.027
1701220174.726,-11.719,100.098,-2.930,31.250,-84.473
1701220174.729,3.906,92.773,-4.395,64.453,-29.785
1701220174.733,9.766,89.355,-10.254,12.207,-74.707
1701220174.737,14.648,92.773,-9.766,-26.855,-138.672
1701220174.741,2.441,88.867,-10.742,10.254,-86.426
1701220174.745,3.418,85.449,-15.625,30.273,-27.344
1701220174.747,29.297,86.914,-14.648,18.555,-65.918
1701220174.751,25.391,88.379,-13.672,13.672,-75.684
1701220174.755,20.020,86.914,-15.137,6.348,-46.387
1701220174.759,2.441,86.426,-12.695,52.734,-37.109
1701220174.763,25.879,85.449,-8.789,52.734,-33.203
1701220174.767,59.082,84.961,-9.277,11.230,-61.035
1701220174.771,8.301,80.566,-14.648,-4.395,-83.008
1701220174.774,-7.812,78.125,-6.836,-3.906,-77.637
1701220174.778,22.461,83.984,0.000,27.832,-69.824
1701220174.782,9.766,79.590,-11.230,9.766,-101.074
1701220174.786,-16.113,70.801,-12.207,-25.879,-101.074
1701220174.790,42.480,73.730,-10.742,42.480,-78.613
1701220174.793,29.785,76.660,-14.160,69.336,-54.688
1701220174.797,-36.621,73.242,-7.324,-36.621,-52.734
1701220174.801,-10.742,71.289,-1.953,-44.922,-86.426
1701220174.805,-16.602,71.289,-0.488,-3.418,-85.449
1701220174.809,-2.441,71.777,-4.395,24.902,-18.555
1701220174.813,19.531,66.895,-8.789,10.254,-44.434
1701220174.817,22.949,63.477,-9.277,-25.391,-116.699
1701220174.820,0.488,60.059,-7.812,-2.441,-106.445
1701220174.824,19.531,62.012,-9.766,32.227,-74.219
1701220174.828,51.758,65.918,-14.648,-0.488,-28.320
1701220174.832,52.734,59.570,-6.836,42.480,-42.480
1701220174.836,0.488,62.012,0.488,66.895,-74.219
1701220174.852,-31.738,69.336,-5.371,-6.836,-15.625
1701220174.856,20.996,71.777,-8.301,9.277,-8.301
1701220174.860,52.734,75.684,0.000,15.137,-76.172
1701220174.864,23.438,73.730,-0.977,32.227,-102.051
1701220174.868,-4.883,72.754,-9.766,50.781,-69.824
1701220174.872,7.812,74.219,-10.254,21.973,-17.578
1701220174.876,37.598,71.777,-3.906,13.672,-41.016
1701220174.879,34.180,72.754,0.977,0.000,-99.609
1701220174.883,-6.348,68.359,-2.441,9.766,-56.152
1701220174.887,-2.930,68.359,-3.418,19.043,-17.578
1701220174.891,31.738,69.336,2.930,20.020,-58.105
1701220174.895,49.805,72.266,1.953,37.598,-77.148
1701220174.882,17.578,74.707,-2.930,34.668,-50.293
1701220174.886,-16.602,73.242,-1.953,17.578,-13.184
1701220174.890,19.531,74.219,-0.488,2.930,-16.113
1701220174.894,58.105,74.707,0.977,-2.441,-67.871
1701220174.898,32.227,79.590,2.441,38.086,-72.754
1701220174.902,16.602,82.031,6.836,61.523,-33.203
1701220174.906,-5.859,74.707,9.766,3.906,-10.254
1701220174.909,-2.441,76.660,7.812,-16.602,-24.902
1701220174.913,14.648,78.613,13.672,48.828,-50.293
1701220174.917,-20.020,75.195,13.672,29.785,-26.855
1701220174.921,-18.066,76.172,12.207,-22.461,-16.602
1701220174.925,36.133,82.520,16.602,-27.344,-39.551
1701220174.942,23.438,83.008,14.160,-23.926,-58.105
1701220174.946,-29.297,77.148,9.766,4.883,-21.973
1701220174.950,-30.762,83.496,10.742,5.371,25.391
1701220174.954,-26.367,86.914,9.766,-26.367,-4.883
1701220174.958,-21.484,84.473,10.254,-4.883,-53.711
1701220174.962,-25.391,88.379,12.695,-9.277,-54.688
1701220174.966,-33.691,91.309,15.137,-55.664,-38.574
1701220174.969,-22.949,90.332,15.137,-60.059,-38.086
1701220174.973,-10.254,92.285,13.672,-54.199,-26.855
1701220174.977,-19.531,96.191,18.555,-52.734,-59.570
1701220174.981,-50.781,96.191,22.461,-8.301,-70.312
1701220174.985,-54.199,95.215,23.438,-20.020,6.348
1701220174.987,-46.875,96.191,16.602,-44.922,-15.137
1701220174.991,-37.109,100.586,17.090,-33.691,-46.387
1701220174.995,-70.312,96.191,20.996,-55.664,-12.207
1701220174.999,-100.098,94.238,25.391,-58.594,22.461
1701220175.003,-82.031,104.980,30.762,-90.820,-10.254
1701220175.007,-129.883,99.121,31.738,-135.742,-66.406
1701220175.011,-157.715,88.379,30.762,-150.879,-20.020
1701220175.014,-175.781,93.262,31.250,-165.039,-0.977
1701220175.018,-169.922,97.168,26.367,-187.988,10.254
1701220175.022,-162.109,99.121,17.090,-200.684,-19.531
1701220175.026,-204.590,99.609,8.789,-179.199,-48.828
1701220175.030,-199.219,104.492,2.441,-168.457,-11.230
1701220175.032,-194.824,110.840,1.465,-201.660,-17.578
1701220175.036,-203.125,104.980,-0.488,-210.938,-27.832
1701220175.040,-155.273,98.633,-0.977,-177.246,-29.297
1701220175.044,-194.824,91.797,3.906,-184.570,4.883
1701220175.048,-203.125,87.891,7.812,-182.129,25.391
1701220175.052,-144.531,84.961,8.789,-157.227,-18.555
1701220175.056,-137.695,81.543,5.371,-155.762,-52.246
1701220175.059,-133.789,83.496,-1.953,-114.746,-44.434
1701220175.063,-104.980,83.984,-5.859,-74.707,-13.184
1701220175.067,-70.801,82.520,-4.395,-9.766,-21.484
1701220175.071,-32.715,83.984,-8.301,-30.762,-13.672
1701220175.075,-20.996,83.496,-14.160,-68.359,-4.395
1701220175.092,27.344,89.355,-16.602,-13.184,-41.016
1701220175.096,89.844,91.797,-18.555,21.973,-12.207
1701220175.100,27.344,78.613,-15.625,53.223,8.789
1701220175.104,13.672,76.660,-15.137,92.285,-14.648
1701220175.108,70.312,84.473,-15.137,72.754,-24.902
1701220175.112,107.422,84.473,-21.484,78.125,1.465
1701220175.116,103.516,83.984,-24.414,99.609,84.961
1701220175.119,105.469,87.891,-23.926,80.566,42.480
1701220175.123,119.629,88.379,-22.461,120.117,4.395
1701220175.127,134.277,88.867,-19.531,144.531,28.320
1701220175.131,151.367,86.914,-23.926,142.090,1.953
1701220175.135,137.207,81.055,-26.855,130.371,21.484
1701220175.122,114.746,80.078,-26.855,115.234,-23.438
1701220175.126,113.770,80.078,-26.367,135.742,-21.973
1701220175.130,148.438,80.078,-20.996,139.160,-11.719
1701220175.134,153.809,79.102,-18.066,121.094,-22.949
1701220175.138,151.855,75.684,-19.531,112.305,0.488
1701220175.142,145.508,72.754,-20.996,123.047,-12.207
1701220175.146,120.605,70.312,-17.578,135.742,-11.719
1701220175.149,138.672,68.848,-18.066,112.305,-7.324
1701220175.153,109.863,67.871,-20.020,101.562,-20.020
1701220175.157,73.242,67.383,-17.090,123.535,-41.992
1701220175.161,96.680,69.336,-15.137,146.484,12.207
1701220175.165,139.648,72.266,-13.184,128.418,51.270
1701220175.182,147.949,70.801,-9.766,109.375,-43.457
1701220175.186,96.191,68.848,-13.672,77.148,-54.688
1701220175.190,58.105,68.359,-16.113,46.875,33.203
1701220175.194,85.449,70.801,-7.812,55.664,35.645
1701220175.198,95.215,69.824,-3.906,92.285,-52.734
1701220175.202,85.449,64.941,-2.930,137.207,-59.570
1701220175.206,66.895,66.406,-3.418,85.938,2.930
1701220175.209,72.754,65.430,-3.906,43.945,9.766
1701220175.213,80.078,63.477,-4.395,43.945,4.395
1701220175.217,58.594,62.500,-7.324,56.152,56.641
1701220175.221,50.293,58.594,-1.465,69.824,52.734
1701220175.225,69.824,60.059,1.953,54.199,19.043
1701220175.212,91.797,62.012,-1.953,53.223,29.785
1701220175.216,60.547,56.152,-4.395,42.969,44.434
1701220175.220,24.414,56.152,1.953,57.129,59.082
1701220175.224,47.852,61.035,6.836,53.223,6.348
1701220175.228,57.617,59.570,2.441,18.555,-27.832
1701220175.232,38.574,55.664,5.371,37.109,0.977
1701220175.236,29.785,52.246,3.906,60.059,36.621
1701220175.239,28.809,50.781,2.930,45.410,18.555
1701220175.243,50.781,51.270,4.883,34.668,22.949
1701220175.247,83.008,47.363,1.465,37.598,74.219
1701220175.251,80.078,50.293,4.395,98.633,51.270
1701220175.255,30.762,58.594,5.859,91.309,28.320
1701220175.273,2.441,52.734,4.883,14.160,42.480
1701220175.277,29.785,50.781,4.395,5.859,29.297
1701220175.281,26.367,49.316,7.324,20.020,10.254
1701220175.285,24.902,48.828,10.742,52.246,6.348
1701220175.289,38.086,56.641,7.812,35.645,19.043
1701220175.293,51.758,59.570,12.695,11.719,54.688
1701220175.297,28.809,61.523,16.113,32.715,42.969
1701220175.300,22.949,72.266,12.695,58.105,6.348
1701220175.304,49.805,70.312,7.324,47.363,17.090
1701220175.308,60.547,67.871,10.742,24.902,18.555
1701220175.312,19.043,70.312,6.836,23.926,2.930
1701220175.316,-4.883,76.172,-5.371,36.133,-13.184
1701220175.302,29.297,82.520,-1.465,48.828,-33.203
1701220175.306,52.246,81.543,2.441,28.809,2.930
1701220175.310,35.645,83.984,5.859,21.484,42.969
1701220175.314,20.996,86.426,9.277,41.504,16.113
1701220175.318,3.906,85.938,10.254,52.246,-4.395
1701220175.322,12.695,85.449,17.578,68.359,-18.066
1701220175.326,25.879,84.473,16.602,66.895,-4.395
1701220175.329,32.227,87.402,9.766,54.688,22.461
1701220175.333,38.574,93.262,7.812,31.738,8.301
1701220175.337,27.344,88.379,8.789,9.766,-11.230
1701220175.341,31.250,86.426,8.789,27.344,31.250
1701220175.345,35.645,92.285,9.277,21.973,42.480
1701220175.362,5.859,90.820,10.742,9.766,27.832
1701220175.366,7.812,93.750,6.348,41.016,-1.465
1701220175.370,31.250,93.262,5.859,36.621,-31.738
1701220175.374,46.387,97.656,8.301,-2.930,0.488
1701220175.378,32.715,100.586,4.883,14.648,25.879
1701220175.382,18.066,99.609,5.859,27.832,32.227
1701220175.386,33.203,103.027,10.254,20.996,10.254
1701220175.389,45.410,103.027,7.324,1.953,7.324
1701220175.393,26.855,102.051,8.789,5.859,19.043
1701220175.397,7.812,102.051,11.719,28.809,0.488
1701220175.401,24.414,99.609,7.324,29.785,23.926
1701220175.405,23.926,104.492,5.859,-1.953,61.523
1701220175.422,4.395,113.770,6.836,3.906,41.992
1701220175.426,0.977,117.676,1.465,19.043,45.410
1701220175.430,15.625,123.535,-5.371,-4.395,17.090
1701220175.434,35.156,125.977,-5.371,1.953,-1.953
1701220175.438,10.742,130.371,-0.488,21.973,-20.996
1701220175.442,2.930,138.672,0.000,18.555,-38.086
1701220175.446,12.695,144.043,-4.883,-0.488,-34.668
1701220175.449,20.020,145.020,-9.277,-15.137,-19.531
1701220175.453,29.785,152.344,0.000,7.812,29.785
1701220175.457,1.953,158.203,3.906,16.113,21.973
1701220175.461,-3.906,154.785,-6.836,-1.953,-4.395
1701220175.465,4.395,157.715,-7.812,-22.461,-14.160
1701220175.452,8.789,158.691,-8.789,-33.691,37.109
1701220175.456,7.324,160.156,-8.789,-12.207,51.758
1701220175.460,1.953,160.156,-8.789,14.648,-3.418
1701220175.464,-1.465,159.180,-8.301,7.324,24.902
1701220175.468,14.648,166.016,-4.883,-18.066,58.105
1701220175.472,2.930,168.457,-3.418,-14.648,33.691
1701220175.476,-15.137,166.016,-3.906,-6.836,63.965
1701220175.479,-8.789,165.039,-5.859,29.785,51.758
1701220175.483,12.207,167.480,-2.930,29.297,51.270
1701220175.487,15.137,172.363,-0.977,-25.391,17.090
1701220175.491,-9.766,169.922,-5.859,-3.418,-23.438
1701220175.495,1.953,174.316,-8.301,-1.465,17.090
1701220175.513,30.273,180.176,-2.930,-4.395,12.207
1701220175.517,13.184,182.617,-7.324,16.113,-9.277
1701220175.521,-14.648,190.430,-14.648,-0.977,3.906
1701220175.525,-5.859,200.684,-11.230,-9.766,6.348
1701220175.529,1.465,208.496,-9.766,-19.043,-20.020
1701220175.533,21.484,215.820,-8.789,-8.789,-14.160
1701220175.537,26.855,227.051,-10.742,19.043,-7.324
1701220175.540,-15.137,228.516,-8.789,17.578,21.484
1701220175.544,-13.672,227.051,-8.789,-10.254,28.809
1701220175.548,18.066,236.328,-10.742,-39.062,-4.395
1701220175.552,-9.766,237.793,-11.230,-25.879,18.555
1701220175.556,-12.695,243.164,-13.184,-3.906,28.809
1701220175.542,-2.930,251.465,-10.742,4.883,38.574
1701220175.546,-19.043,251.465,-10.254,-4.883,74.219
1701220175.550,-6.348,254.395,-19.531,-24.414,49.316
1701220175.554,-24.902,258.789,-18.555,17.090,10.742
1701220175.558,-31.738,264.648,-17.090,6.836,20.508
1701220175.562,12.207,266.602,-18.555,-44.922,65.430
1701220175.566,14.160,264.160,-17.090,-4.883,91.797
1701220175.569,-26.367,261.719,-21.973,3.906,44.922
1701220175.573,-17.090,263.184,-24.414,-16.602,4.883
1701220175.577,-12.695,261.230,-22.949,-20.020,-6.348
1701220175.581,-14.160,253.906,-20.508,-40.039,22.461
1701220175.585,-19.043,248.535,-17.578,-34.668,46.387
1701220175.587,-26.367,249.023,-18.555,-3.418,4.395
1701220175.591,-26.367,249.023,-20.996,11.719,38.574
1701220175.595,-6.348,244.629,-24.902,-31.738,86.426
1701220175.599,-8.301,240.723,-24.414,-40.039,72.754
1701220175.603,-27.832,241.699,-18.066,8.301,10.742
1701220175.607,-23.926,237.793,-20.508,-1.465,7.812
1701220175.611,0.977,236.328,-23.926,-20.508,40.039
1701220175.614,12.695,239.746,-20.508,-36.133,0.977
1701220175.618,-21.973,239.746,-19.043,-12.207,-3.906
1701220175.622,-7.324,236.816,-19.531,14.160,28.809
1701220175.626,13.672,231.445,-15.137,0.977,35.645
1701220175.630,-0.977,225.098,-10.254,-35.645,15.137
1701220175.662,-30.273,223.145,-10.254,-39.551,17.090
1701220175.666,-42.969,226.074,-7.812,-8.789,2.441
1701220175.670,-10.742,228.516,-7.812,12.207,34.180
1701220175.674,5.859,225.586,-8.301,20.020,62.988
1701220175.678,-2.441,218.750,-6.348,2.441,29.297
1701220175.682,-6.348,220.703,-6.348,13.672,13.672
1701220175.686,11.230,223.633,-6.348,24.414,-18.555
1701220175.689,24.414,214.844,-9.277,-2.441,-36.621
1701220175.693,22.949,213.867,-8.789,13.672,-30.762
1701220175.697,32.227,223.633,-7.812,11.719,13.672
1701220175.701,16.113,217.773,-8.789,-11.719,40.039
1701220175.705,-2.441,209.961,-5.859,-19.531,1.465
1701220175.677,8.301,208.008,-6.348,-37.109,-1.953
1701220175.681,-6.836,200.684,-6.836,-1.953,45.898
1701220175.685,-20.508,199.707,-8.789,18.066,-13.672
1701220175.689,10.742,203.613,-13.672,-32.227,-1.465
1701220175.693,5.371,204.102,-11.719,-37.598,48.828
1701220175.697,-20.996,207.031,-8.789,22.949,23.926
1701220175.701,-10.254,214.355,-4.395,30.273,-7.812
1701220175.704,14.160,215.332,-0.977,-17.578,11.719
1701220175.708,20.996,217.285,-1.465,-16.602,55.176
1701220175.712,7.812,226.074,-2.441,8.301,55.664
1701220175.716,45.898,231.934,-3.418,24.902,78.613
1701220175.720,37.109,230.957,-8.301,7.324,38.574
1701220175.738,-3.418,229.492,-6.348,8.789,23.926
1701220175.742,-7.324,226.562,-1.953,20.996,60.547
1701220175.746,-34.180,222.168,-2.441,-1.953,64.941
1701220175.750,-1.465,225.098,-8.301,-6.836,37.598
1701220175.754,31.250,226.562,-9.277,-32.715,36.133
1701220175.758,17.090,218.750,-0.977,-42.480,25.879
1701220175.762,7.812,212.891,-5.371,-25.879,-3.906
1701220175.765,-3.906,209.961,-5.371,-4.395,-0.488
1701220175.769,3.418,203.125,3.418,6.348,11.719
1701220175.773,21.484,195.312,-2.441,-11.719,3.418
1701220175.777,1.953,194.824,0.977,-5.859,15.625
1701220175.781,-8.789,191.895,3.906,23.438,66.895
1701220175.798,3.906,184.570,-6.348,7.812,75.195
1701220175.802,28.320,183.594,-9.766,-10.254,31.738
1701220175.806,9.277,186.035,-7.324,-3.418,-17.090
1701220175.810,-24.902,183.594,-6.348,-3.906,4.883
1701220175.814,-14.160,181.641,-5.859,-8.789,55.176
1701220175.818,3.906,182.129,-6.348,-15.625,44.434
1701220175.822,19.043,189.453,-7.324,10.742,31.738
1701220175.825,-1.953,190.430,-8.301,34.180,41.016
1701220175.829,-22.949,186.523,-12.207,3.906,44.434
1701220175.833,11.719,191.895,-11.230,-32.715,29.297
1701220175.837,13.184,200.195,-8.789,-53.711,8.789
1701220175.841,-7.324,207.520,-9.277,-27.832,26.367
1701220175.827,-6.348,202.637,-10.254,8.789,1.465
1701220175.831,-19.531,199.707,-13.672,5.371,-6.836
1701220175.835,-3.906,207.520,-15.137,-31.738,6.836
1701220175.839,-8.301,209.473,-17.090,-22.461,-0.488
1701220175.843,-23.926,207.031,-18.066,-17.578,-5.859
1701220175.847,-6.348,205.566,-18.066,-7.324,-8.301
1701220175.851,-5.371,202.637,-18.066,2.441,49.805
1701220175.854,-24.902,200.195,-12.207,-33.691,61.523
1701220175.858,-12.207,201.172,-15.625,-6.348,5.859
1701220175.862,5.859,200.684,-20.020,7.324,17.578
1701220175.866,-10.254,196.777,-12.695,-0.977,21.484
1701220175.870,-20.508,193.359,-10.254,-11.719,-13.672
1701220175.872,-39.062,195.801,-10.742,-16.113,-11.719
1701220175.876,-23.926,195.801,-8.789,5.859,22.949
1701220175.880,-9.766,193.848,-13.184,-6.836,74.219
1701220175.884,-9.766,196.777,-18.555,-15.625,74.707
1701220175.888,-6.836,198.730,-16.113,8.789,50.293
1701220175.892,-20.508,195.801,-16.602,-27.344,8.301
1701220175.896,-4.395,195.312,-18.066,-33.691,-45.410
1701220175.899,6.348,195.801,-19.531,-26.367,24.902
1701220175.903,-5.859,190.430,-17.578,-27.832,41.504
1701220175.907,-14.160,187.500,-13.672,0.977,-24.902
1701220175.911,-10.254,184.082,-18.066,20.020,17.090
1701220175.915,7.812,186.523,-17.578,1.465,56.641
1701220175.917,10.254,193.848,-9.766,12.207,13.672
1701220175.921,-19.531,189.453,-16.602,9.277,52.734
1701220175.925,-17.578,185.059,-20.020,-39.551,41.016
1701220175.929,-5.859,186.523,-17.090,-46.875,-0.488
1701220175.933,0.488,190.430,-19.531,-28.320,25.879
1701220175.937,-16.113,194.824,-15.625,8.301,76.660
1701220175.941,-6.348,204.102,-10.742,21.484,36.133
1701220175.944,26.855,205.078,-11.230,4.395,33.203
1701220175.948,-4.883,198.242,-13.672,-2.930,62.988
1701220175.952,-25.879,203.613,-11.719,12.207,55.176
1701220175.956,-23.926,207.031,-11.719,12.695,86.426
1701220175.960,-3.906,202.637,-14.160,-24.414,72.754
1701220175.978,22.949,204.590,-13.184,-27.832,21.484
1701220175.982,0.000,204.590,-11.719,-28.320,-40.527
1701220175.986,-21.973,201.660,-10.254,-12.695,4.395
1701220175.990,-1.953,204.102,-7.812,12.207,81.543
1701220175.994,18.555,205.078,-0.977,8.789,11.230
1701220175.998,-4.395,196.777,-5.859,-11.230,-19.043
1701220176.002,-3.906,205.078,-4.395,4.395,9.766
1701220176.005,4.883,210.449,2.930,14.160,21.973
1701220176.009,-6.836,203.613,-0.488,-16.113,18.555
1701220176.013,-14.160,202.637,-1.465,-25.391,52.734
1701220176.017,-25.391,203.613,-3.906,-36.621,43.945
1701220176.021,-41.504,208.984,0.488,-33.691,16.602
1701220176.007,-61.035,208.008,3.418,-49.805,12.207
1701220176.011,-67.383,209.473,13.184,-107.422,23.438
1701220176.015,-120.605,212.402,17.090,-128.906,36.133
1701220176.019,-180.176,208.008,2.930,-130.859,10.254
1701220176.023,-187.012,201.172,4.883,-162.598,0.977
1701220176.027,-194.824,197.266,13.184,-201.172,-0.488
1701220176.031,-220.215,197.266,12.695,-241.699,-21.484
1701220176.034,-256.348,202.148,7.324,-270.508,-45.410
1701220176.038,-276.367,192.871,3.906,-251.465,6.836
1701220176.042,-251.953,187.988,12.695,-244.141,22.949
1701220176.046,-251.465,192.871,16.602,-299.805,52.734
1701220176.050,-309.082,185.547,10.254,-304.688,25.879
1701220176.067,-291.016,181.641,8.789,-269.531,39.551
1701220176.071,-247.070,177.246,10.742,-276.367,39.551
1701220176.075,-273.926,174.316,11.230,-289.062,0.488
1701220176.079,-268.066,176.270,2.441,-248.047,40.039
1701220176.083,-225.586,172.363,-4.395,-189.453,58.105
1701220176.087,-200.684,162.109,-3.418,-151.367,37.109
1701220176.091,-154.785,157.715,-3.906,-181.152,38.574
1701220176.094,-128.418,164.551,-0.977,-180.176,19.531
1701220176.098,-140.137,159.180,-6.348,-129.883,0.000
1701220176.102,-90.332,152.832,-16.113,-94.727,12.207
1701220176.106,-65.918,152.832,-20.508,-76.660,17.090
1701220176.110,-66.406,149.414,-20.508,-50.293,37.109
1701220176.112,-39.551,144.043,-16.113,-16.602,8.789
1701220176.116,-6.348,142.578,-17.578,27.832,11.230
1701220176.120,40.527,137.695,-17.578,54.688,48.828
1701220176.124,63.477,133.301,-18.555,69.336,39.062
1701220176.128,42.969,130.859,-20.020,135.742,45.898
1701220176.132,78.125,127.930,-16.602,117.188,18.555
1701220176.136,116.211,125.977,-20.508,70.801,6.348
1701220176.139,123.535,126.953,-24.902,95.703,50.293
1701220176.143,141.602,129.395,-23.438,118.164,16.113
1701220176.147,115.723,125.488,-21.973,142.090,-3.418
1701220176.151,128.418,125.977,-20.020,151.367,33.203
1701220176.155,152.832,125.000,-21.973,128.906,4.883
1701220176.157,138.672,123.535,-22.949,101.562,44.434
1701220176.161,128.418,121.094,-18.555,114.258,69.824
1701220176.165,152.832,117.676,-16.602,122.070,-4.883
1701220176.169,156.738,110.352,-19.043,114.258,40.039
1701220176.173,126.953,103.516,-14.648,124.023,56.152
1701220176.177,115.723,107.422,-9.277,144.531,18.066
1701220176.181,126.953,103.516,-11.719,138.184,9.277
1701220176.184,149.902,98.633,-16.602,88.867,20.508
1701220176.188,156.250,97.656,-11.230,101.562,29.297
1701220176.192,109.375,90.820,-6.836,135.742,2.930
1701220176.196,94.238,90.820,-9.277,140.625,14.160
1701220176.200,130.371,92.773,-8.301,153.809,7.324
1701220176.203,138.184,91.797,-5.859,126.465,-25.391
1701220176.207,103.027,87.402,-3.418,79.590,13.184
1701220176.211,90.820,84.961,-0.977,95.703,53.223
1701220176.215,113.281,87.891,4.395,114.258,72.754
1701220176.219,122.070,84.961,9.766,122.070,74.219
1701220176.223,104.004,80.078,9.766,107.422,9.277
1701220176.227,75.195,82.520,7.324,70.801,28.809
1701220176.230,77.637,83.008,6.348,74.707,82.520
1701220176.234,110.352,83.008,10.742,88.379,67.871
1701220176.238,95.215,81.543,10.742,99.121,22.949
1701220176.242,61.035,81.543,6.836,98.145,-15.625
1701220176.246,83.008,85.938,8.301,71.777,37.109
1701220176.248,99.609,86.914,9.277,69.336,72.266
1701220176.252,64.941,84.961,8.301,83.496,-0.488
1701220176.256,49.316,85.449,15.137,82.031,-14.160
1701220176.260,60.059,86.426,13.672,56.152,30.273
1701220176.264,66.895,82.031,10.742,28.809,-2.930
1701220176.268,61.035,83.496,12.207,17.090,-9.766
1701220176.272,39.062,85.938,12.695,54.688,7.812
1701220176.275,52.734,86.426,13.672,87.402,34.180
1701220176.279,75.684,88.867,16.602,50.781,50.293
1701220176.283,58.594,85.449,12.695,19.531,44.922
1701220176.287,63.965,83.496,8.301,29.785,57.129
1701220176.291,59.570,84.473,15.137,37.598,72.266
1701220176.292,33.691,84.961,15.625,38.086,46.875
1701220176.296,54.688,83.496,12.695,43.945,40.039
1701220176.300,58.105,77.637,18.555,48.340,34.668
1701220176.304,20.508,78.125,18.066,45.898,2.441
1701220176.308,29.297,84.961,14.648,47.852,-14.648
1701220176.312,62.500,87.891,14.648,29.785,-11.230
1701220176.316,48.340,86.914,11.719,16.113,-24.902
1701220176.319,24.414,85.449,15.137,28.809,-18.066
1701220176.323,49.805,82.520,18.555,63.477,-35.645
1701220176.327,66.406,78.613,20.020,63.477,24.414
1701220176.331,41.016,76.172,19.531,38.574,39.062
1701220176.335,26.855,74.219,16.602,14.648,34.180
1701220176.337,29.785,74.707,16.113,14.160,83.984
1701220176.341,21.973,74.219,18.066,38.086,62.988
1701220176.345,46.387,75.195,22.949,38.574,54.199
1701220176.349,52.246,74.707,21.484,12.695,31.738
1701220176.353,38.086,72.754,15.137,19.043,16.602
1701220176.357,26.855,69.824,16.602,35.645,57.129
1701220176.361,50.781,70.312,19.043,44.434,25.879
1701220176.364,47.852,70.312,18.066,39.551,41.504
1701220176.368,21.484,68.848,17.578,57.129,53.223
1701220176.372,61.523,71.777,16.113,63.477,9.277
1701220176.376,52.246,70.312,17.090,24.414,26.367
1701220176.380,27.832,65.430,23.438,24.414,32.227
1701220176.397,18.555,66.406,22.461,23.926,26.367
1701220176.401,17.578,69.824,20.996,31.250,24.902
1701220176.405,36.621,64.941,25.391,30.273,40.039
1701220176.409,37.598,63.965,24.902,21.484,55.664
1701220176.413,23.438,67.871,18.555,37.598,-20.996
1701220176.417,25.391,65.430,15.137,62.012,7.324
1701220176.421,32.227,62.988,20.508,62.012,76.172
1701220176.424,30.273,61.035,23.926,25.391,14.648
1701220176.428,26.367,56.641,20.508,41.992,-13.672
1701220176.432,32.715,55.664,21.484,50.293,15.137
1701220176.436,39.062,58.105,21.973,31.738,-7.324
1701220176.440,32.227,60.059,19.043,30.762,-25.391
1701220176.428,28.809,59.082,20.996,11.230,-2.441
1701220176.432,36.621,59.082,21.484,43.457,-14.160
1701220176.436,23.926,58.594,20.996,39.551,15.137
1701220176.440,7.812,58.594,20.020,1.953,7.812
1701220176.444,35.156,61.035,17.578,7.812,15.137
1701220176.448,31.250,61.035,20.508,10.742,65.430
1701220176.452,-4.395,60.547,25.879,27.344,61.523
1701220176.455,37.109,57.617,30.762,62.500,35.645
1701220176.459,62.012,53.223,29.297,62.988,62.012
1701220176.463,0.977,53.223,26.367,23.926,82.520
1701220176.467,-14.648,54.688,27.832,22.461,32.715
1701220176.471,10.254,52.734,30.762,36.133,10.254
1701220176.488,51.758,51.270,27.832,26.855,28.809
1701220176.492,57.617,49.805,21.973,10.742,39.551
1701220176.496,24.902,50.781,24.414,5.371,-12.695
1701220176.500,-14.648,51.270,23.926,32.227,5.859
1701220176.504,15.625,51.758,22.461,8.301,48.828
1701220176.508,30.273,48.340,29.785,-10.742,5.859
1701220176.512,-1.465,44.922,36.133,30.762,-8.301
1701220176.515,10.742,45.410,32.715,36.621,3.906
1701220176.519,32.227,42.480,30.273,46.875,23.926
1701220176.523,52.734,41.504,31.738,57.617,40.527
1701220176.527,59.082,41.992,30.762,25.391,-4.395
1701220176.531,0.488,40.527,28.320,11.719,50.293
1701220176.533,-14.160,36.133,26.855,34.180,72.266
1701220176.537,21.484,37.598,30.762,30.762,-2.441
1701220176.541,12.207,38.574,31.250,24.414,4.395
1701220176.545,16.602,33.203,28.809,52.734,51.758
1701220176.549,30.273,34.180,25.879,48.340,16.113
1701220176.553,38.086,31.738,24.414,25.391,-10.254
1701220176.557,30.762,27.344,29.297,27.832,-29.297
1701220176.560,16.602,29.785,28.320,18.555,-20.508
1701220176.564,43.457,30.273,26.855,19.531,24.902
1701220176.568,24.414,22.461,32.715,53.223,-23.926
1701220176.572,11.230,24.414,29.785,52.734,-7.324
1701220176.576,8.789,26.367,21.484,18.555,68.359
1701220176.577,13.184,24.902,18.555,-7.812,65.430
1701220176.581,37.109,24.414,20.020,28.320,68.359
1701220176.585,24.902,19.531,23.926,31.250,28.320
1701220176.589,8.301,20.996,20.508,-18.066,29.297
1701220176.593,-2.441,27.832,13.184,2.930,103.516
1701220176.597,13.184,26.855,17.578,17.578,82.520
1701220176.601,45.410,22.461,21.484,8.789,-2.930
1701220176.604,28.809,23.926,17.578,4.883,5.371
1701220176.608,11.719,24.902,16.602,27.832,73.242
1701220176.612,23.926,22.949,18.555,78.613,27.344
1701220176.616,17.090,23.438,19.531,42.969,-0.977
1701220176.620,39.062,26.855,18.555,-18.555,47.852
1701220176.622,25.879,24.902,21.973,22.949,51.270
1701220176.626,-13.672,21.973,21.484,27.344,5.371
1701220176.630,14.160,22.461,16.602,0.977,-35.645
1701220176.634,24.414,19.531,19.531,-3.906,-18.555
1701220176.638,9.277,16.113,23.438,1.465,-3.418
1701220176.642,28.809,17.578,23.926,54.199,22.461
1701220176.646,19.043,17.090,22.461,62.988,-11.719
1701220176.649,28.809,18.555,20.020,-3.418,34.180
1701220176.653,53.223,20.996,19.043,-2.441,103.027
1701220176.657,-9.766,20.508,17.578,15.625,33.691
1701220176.661,3.906,21.484,19.043,28.809,17.578
1701220176.665,30.762,20.020,23.438,35.645,36.621
1701220176.667,11.719,19.043,22.461,6.836,30.762
1701220176.671,13.672,23.438,22.461,17.090,46.387
1701220176.675,28.320,21.484,20.508,38.574,-7.324
1701220176.679,43.457,15.137,19.043,42.480,-48.340
1701220176.683,36.621,13.184,23.438,19.043,-49.316
1701220176.687,-2.441,9.766,21.484,30.762,-12.207
1701220176.691,-7.812,6.348,19.531,75.195,22.461
1701220176.694,14.160,9.277,25.879,34.668,48.340
1701220176.698,48.828,12.207,25.391,-1.953,55.176
1701220176.702,11.230,6.836,18.555,25.391,8.301
1701220176.706,-20.508,3.418,17.578,26.367,-31.738
1701220176.710,25.391,4.395,18.555,15.625,20.020
1701220176.772,43.945,5.371,20.508,2.441,49.316
1701220176.776,31.738,3.906,21.973,26.855,-7.812
1701220176.780,-1.465,3.906,24.902,27.344,-28.809
1701220176.784,29.297,6.836,25.879,23.926,8.301
1701220176.788,43.945,7.324,20.508,38.086,70.801
1701220176.792,9.277,3.906,22.461,46.875,60.059
1701220176.796,32.715,5.371,26.855,64.453,40.527
1701220176.799,28.320,6.348,25.879,35.645,36.621
1701220176.803,21.484,1.953,24.902,-1.953,83.008
1701220176.807,32.227,0.000,26.855,-3.906,96.680
1701220176.811,38.574,1.465,25.391,36.133,76.660
1701220176.815,26.367,7.324,23.926,57.129,34.668
1701220176.834,19.043,3.418,22.949,16.602,2.930
1701220176.838,42.969,0.000,24.414,17.090,47.363
1701220176.842,18.066,2.930,26.855,32.227,27.344
1701220176.846,6.348,2.441,25.391,21.973,-22.461
1701220176.850,21.973,0.977,24.414,31.250,-56.641
1701220176.854,29.297,0.977,21.484,31.738,-6.348
1701220176.858,20.020,1.465,19.043,7.324,0.977
1701220176.861,14.160,2.441,20.020,37.109,-0.977
1701220176.865,15.625,3.418,20.508,41.504,15.625
1701220176.869,44.922,5.371,20.508,5.371,-5.859
1701220176.873,42.480,1.953,20.508,1.953,22.461
1701220176.877,8.789,0.977,18.555,18.555,1.465
1701220176.838,26.855,4.395,16.113,36.133,20.996
1701220176.842,27.832,-2.441,19.043,52.246,48.828
1701220176.846,17.578,-6.348,21.484,39.062,7.812
1701220176.850,23.926,-2.441,20.508,25.391,11.230
1701220176.854,28.809,0.488,20.020,35.645,0.977
1701220176.858,41.504,-3.906,24.414,42.969,-0.488
1701220176.862,24.414,-4.395,27.344,32.715,18.066
1701220176.865,25.879,-1.953,23.926,17.578,5.371
1701220176.869,28.320,-3.906,25.879,37.109,-18.066
1701220176.873,33.203,-2.441,24.414,30.273,-33.203
1701220176.877,29.785,0.488,20.020,21.484,7.812
1701220176.881,7.324,0.488,18.555,15.137,34.668
1701220176.849,14.160,-0.488,20.996,34.180,32.715
1701220176.853,63.965,2.441,21.484,41.992,47.852
1701220176.857,59.570,0.000,20.020,6.348,34.668
1701220176.861,-2.930,-5.371,21.973,-5.859,23.926
1701220176.865,-3.906,-2.441,22.949,14.648,77.148
1701220176.869,27.344,1.953,23.438,47.363,63.965
1701220176.873,34.180,0.488,22.461,44.922,19.531
1701220176.876,24.414,0.000,20.508,16.602,17.578
1701220176.880,24.414,-1.465,17.578,2.441,-4.395
1701220176.884,14.648,-3.418,19.043,18.066,22.461
1701220176.888,42.969,0.000,20.508,48.340,31.738
1701220176.892,85.938,4.883,16.602,29.297,-11.719
1701220176.907,44.922,0.488,20.020,20.996,-3.418
1701220176.911,-7.812,-6.348,25.879,35.645,24.902
1701220176.915,14.160,-7.812,25.391,23.438,72.754
1701220176.919,37.109,-6.836,24.414,20.508,52.246
1701220176.923,31.250,-2.930,24.414,18.066,3.906
1701220176.927,19.043,-2.441,25.391,44.434,22.949
1701220176.931,19.531,-2.441,23.926,59.082,56.641
1701220176.934,47.363,-2.441,25.391,26.367,0.000
1701220176.938,51.270,-3.906,30.273,29.297,-7.812
1701220176.942,10.254,0.488,28.320,19.043,37.598
1701220176.946,26.855,3.906,26.855,26.367,-27.832
1701220176.950,50.781,3.418,22.949,16.602,-45.410
1701220176.967,24.902,0.000,23.438,7.812,34.668
1701220176.971,2.441,-2.441,27.344,38.086,78.125
1701220176.975,15.137,-1.953,28.809,31.738,31.738
1701220176.979,25.879,-1.465,28.809,23.926,16.602
1701220176.983,38.086,-0.977,28.809,41.016,83.984
1701220176.987,37.598,-3.418,30.273,33.691,35.156
1701220176.991,19.043,-2.441,25.879,28.320,8.301
1701220176.994,41.504,5.371,20.020,21.973,77.148
1701220176.998,56.641,4.883,21.484,20.996,58.105
1701220177.002,46.875,-0.977,22.461,29.785,47.852
1701220177.006,28.320,2.930,20.508,38.086,38.574
1701220177.010,41.016,5.859,18.555,50.293,-0.488
1701220176.998,35.645,2.930,19.043,52.734,9.277
1701220177.002,13.672,1.465,22.461,24.414,17.578
1701220177.006,25.879,3.906,22.461,20.020,29.297
1701220177.010,19.531,2.441,20.996,35.156,17.578
1701220177.014,23.926,0.488,21.484,31.738,-12.207
1701220177.018,38.086,4.395,22.461,16.113,25.879
1701220177.022,25.879,6.836,22.461,6.348,31.250
1701220177.025,7.324,6.836,20.508,20.508,9.277
1701220177.029,27.832,7.812,17.090,26.855,3.418
1701220177.033,53.223,8.789,17.090,24.902,38.086
1701220177.037,48.828,8.789,22.949,47.852,42.480
1701220177.041,12.695,7.324,27.344,58.594,-11.719
1701220177.057,7.324,2.930,28.809,44.434,-18.555
1701220177.061,41.504,-0.977,25.879,8.301,11.230
1701220177.065,34.668,-0.488,24.414,-27.832,30.273
1701220177.069,7.812,4.883,29.785,5.859,39.551
1701220177.073,17.578,6.836,28.809,27.832,31.250
1701220177.077,35.156,3.906,25.391,28.320,10.254
1701220177.081,28.809,2.441,25.391,28.320,47.363
1701220177.084,13.672,1.465,28.320,8.301,15.137
1701220177.088,1.465,2.930,28.809,44.434,-8.301
1701220177.092,13.672,6.348,23.438,76.660,72.266
1701220177.096,41.992,7.812,24.902,7.812,89.355
1701220177.100,2.441,7.812,28.809,-15.625,36.621
1701220177.087,-19.043,10.254,29.297,7.324,10.742
1701220177.091,8.301,11.230,29.785,5.371,2.441
1701220177.095,22.949,12.695,30.762,12.207,-26.855
1701220177.099,38.574,14.648,28.809,15.625,-44.434
1701220177.103,22.949,12.695,25.879,27.344,-36.133
1701220177.107,38.574,13.672,24.414,38.574,12.695
1701220177.111,42.480,15.137,24.902,20.508,44.434
1701220177.114,0.488,12.207,26.855,1.465,-4.883
1701220177.118,4.395,12.695,23.926,47.363,27.344
1701220177.122,27.832,14.648,24.414,37.109,65.430
1701220177.126,47.363,15.137,25.391,-1.953,38.574
1701220177.130,30.762,13.672,25.391,-7.324,33.203
1701220177.133,0.977,13.184,23.926,-20.508,35.645
1701220177.137,20.996,13.184,21.484,2.441,54.199
1701220177.141,47.852,12.207,27.832,30.762,35.156
1701220177.145,36.621,9.766,31.738,52.246,-21.484
1701220177.149,20.508,10.742,25.879,53.711,-20.020
1701220177.153,-0.977,12.207,24.902,50.781,16.113
1701220177.157,8.789,9.766,26.855,21.973,34.668
1701220177.160,46.387,14.160,27.832,21.973,29.297
1701220177.164,55.176,21.973,25.391,23.926,47.363
1701220177.168,29.785,20.996,23.438,4.395,-8.301
1701220177.172,21.973,13.672,22.949,49.316,-42.480
1701220177.176,41.992,15.625,19.531,60.547,-4.395
1701220177.237,44.922,23.926,21.973,17.090,48.828
1701220177.241,33.203,24.902,24.414,19.043,99.121
1701220177.245,16.113,25.879,25.391,31.738,37.109
1701220177.249,21.484,20.996,28.809,32.715,9.277
1701220177.253,40.039,18.066,27.832,9.766,89.355
1701220177.257,22.461,23.438,25.879,9.766,51.758
1701220177.261,6.836,24.902,26.367,46.387,14.648
1701220177.264,20.996,26.367,23.926,21.484,70.312
1701220177.268,31.738,28.320,19.043,-21.484,9.766
1701220177.272,22.461,26.367,21.484,1.953,-14.648
1701220177.276,22.461,24.414,24.414,34.180,62.012
1701220177.280,20.508,23.438,22.461,41.504,80.566
1701220177.241,33.203,24.414,23.438,53.711,31.250
1701220177.245,30.762,26.855,24.902,39.551,32.715
1701220177.249,10.254,25.391,26.367,27.832,91.309
1701220177.253,41.992,24.902,27.344,40.039,37.598
1701220177.257,52.246,27.832,26.367,31.250,5.371
1701220177.261,28.809,26.855,28.809,38.574,22.949
1701220177.265,10.254,26.367,26.367,34.180,33.691
1701220177.268,13.672,29.785,21.973,34.180,15.625
1701220177.272,35.156,29.785,19.043,11.230,28.320
1701220177.276,31.738,26.855,19.043,-30.762,42.969
1701220177.280,14.648,29.297,17.090,-27.832,42.480
1701220177.284,1.953,30.273,16.113,-5.371,71.777
1701220177.271,21.973,29.785,18.066,21.973,42.969
1701220177.275,37.598,32.227,17.578,2.930,32.227
1701220177.279,9.766,33.691,18.555,-10.742,38.086
1701220177.283,6.836,31.738,21.973,23.438,-32.715
1701220177.287,-3.906,31.250,21.484,24.902,-6.836
1701220177.291,7.812,31.738,18.555,7.324,63.477
1701220177.295,20.996,30.762,19.043,12.695,25.391
1701220177.298,6.348,32.715,20.996,50.293,42.969
1701220177.302,9.277,32.715,23.438,53.223,18.066
1701220177.306,14.648,35.645,25.391,20.020,0.488
1701220177.310,20.020,39.062,23.926,9.766,10.254
1701220177.314,9.766,37.598,20.508,10.742,-1.953
1701220177.327,2.441,38.574,21.484,14.160,50.781
1701220177.331,20.020,40.527,21.484,20.020,12.207
1701220177.335,17.578,38.574,20.996,21.484,-21.484
1701220177.339,-8.789,36.133,23.438,12.207,7.324
1701220177.343,-12.207,36.133,28.320,13.184,50.293
1701220177.347,21.484,38.086,28.809,28.809,113.770
1701220177.351,54.199,40.527,23.438,2.930,34.668
1701220177.354,28.320,41.016,24.902,-13.672,-23.438
1701220177.358,-4.883,38.574,28.320,5.371,33.203
1701220177.362,20.508,40.039,24.902,-3.418,20.020
1701220177.366,51.758,40.039,21.973,-10.254,41.016
1701220177.370,13.184,37.598,24.902,9.766,56.152
1701220177.372,-12.207,38.086,26.855,42.480,-10.254
1701220177.376,0.000,36.133,26.367,66.895,56.152
1701220177.380,18.066,36.621,22.949,26.855,99.609
1701220177.384,28.809,39.062,20.508,-13.672,36.621
1701220177.388,14.160,38.086,23.438,-6.836,9.766
1701220177.392,2.441,36.133,27.344,8.301,16.602
1701220177.396,20.508,34.180,29.297,36.133,5.371
1701220177.399,35.645,37.109,30.273,33.203,-0.977
1701220177.403,27.832,37.109,29.785,26.367,29.297
1701220177.407,4.395,34.668,25.391,23.438,32.227
1701220177.411,6.836,36.621,24.414,39.062,4.395
1701220177.415,60.059,39.551,23.438,29.297,0.000
1701220177.433,47.363,40.527,21.484,28.320,-16.113
1701220177.437,6.836,39.551,22.461,48.340,-29.785
1701220177.441,-5.859,40.527,17.090,17.578,44.922
1701220177.445,7.324,41.016,18.066,8.301,39.551
1701220177.449,13.672,41.992,23.438,22.461,27.832
1701220177.453,20.508,42.480,22.949,27.344,63.965
1701220177.457,33.691,43.945,21.484,30.273,104.980
1701220177.460,26.367,39.062,23.438,3.418,59.570
1701220177.464,37.598,34.668,27.344,-0.977,22.949
1701220177.468,4.883,40.039,28.809,10.742,10.742
1701220177.472,-11.719,40.527,28.809,21.484,-1.465
1701220177.476,32.227,40.527,28.320,59.570,31.738
1701220177.462,39.062,42.480,27.832,36.133,30.762
1701220177.466,42.480,40.039,27.832,20.020,3.418
1701220177.470,25.391,38.086,28.320,35.156,24.414
1701220177.474,25.879,35.645,28.809,46.875,40.527
1701220177.478,55.176,35.156,27.832,35.645,-4.883
1701220177.482,15.137,36.621,27.344,-5.859,-3.418
1701220177.486,-11.230,35.156,28.809,11.230,2.441
1701220177.489,24.414,35.156,28.320,52.734,62.988
1701220177.493,38.574,38.086,23.926,48.340,79.590
1701220177.497,18.066,39.062,23.438,11.719,-31.738
1701220177.501,8.789,40.527,27.344,15.625,27.344
1701220177.505,14.648,40.039,29.297,18.066,35.645
1701220177.537,26.855,36.621,24.902,24.902,3.418
1701220177.541,14.648,34.180,27.344,23.438,33.203
1701220177.545,4.883,41.016,32.227,-4.395,30.762
1701220177.549,8.789,42.480,30.762,13.184,60.059
1701220177.553,29.297,42.969,26.367,32.227,60.059
1701220177.557,45.898,48.340,23.438,13.672,52.246
1701220177.561,32.227,42.969,29.297,12.207,76.172
1701220177.564,19.043,36.621,32.227,40.527,108.887
1701220177.568,14.648,39.062,30.762,44.434,111.328
1701220177.572,19.043,42.480,31.738,22.461,15.137
1701220177.576,22.949,41.016,26.367,20.020,22.461
1701220177.580,-0.977,37.598,26.367,33.203,83.008
1701220177.552,1.465,40.527,26.855,29.785,7.324
1701220177.556,27.832,44.434,23.926,25.879,-21.484
1701220177.560,35.645,43.945,25.391,12.207,46.387
1701220177.564,11.719,42.480,23.438,1.465,106.445
1701220177.568,6.348,44.434,22.461,24.414,90.332
1701220177.572,26.367,40.527,26.367,27.832,84.473
1701220177.576,21.484,38.086,27.832,31.738,56.641
1701220177.579,3.418,42.969,25.391,25.391,48.828
1701220177.583,3.906,50.293,21.973,5.371,41.016
1701220177.587,24.902,49.805,23.438,19.531,-31.250
1701220177.591,37.109,43.945,28.320,21.973,14.160
1701220177.595,24.902,49.316,27.344,6.348,18.555
1701220177.612,8.301,54.199,26.367,23.438,-42.969
1701220177.616,23.926,52.734,28.320,45.898,-37.598
1701220177.620,31.738,52.246,30.273,17.090,13.184
1701220177.624,7.324,54.199,27.832,-6.836,55.176
1701220177.628,20.020,55.664,23.438,17.090,6.348
1701220177.632,35.156,58.594,21.484,25.879,-33.203
1701220177.636,23.926,56.152,20.996,10.254,33.203
1701220177.639,26.855,51.270,24.414,7.812,87.402
1701220177.643,5.859,53.711,30.762,16.113,36.133
1701220177.647,2.441,55.664,29.785,-1.465,9.277
1701220177.651,7.812,54.199,25.391,-5.859,50.293
1701220177.655,15.625,56.641,23.926,-8.789,87.891
1701220177.661,15.625,56.152,26.367,-4.883,51.758
1701220177.665,3.418,53.223,29.297,45.410,27.344
1701220177.669,18.555,54.688,29.297,47.363,26.367
1701220177.673,38.086,53.711,25.879,5.371,-75.195
1701220177.677,20.020,50.293,23.926,-13.672,5.371
1701220177.681,4.883,49.805,25.879,16.113,57.617
1701220177.685,21.973,47.363,25.879,33.203,-39.551
1701220177.688,33.203,46.387,20.996,-7.812,4.395
1701220177.692,18.555,48.340,23.438,-4.395,43.945
1701220177.696,-7.812,47.852,27.832,12.695,10.254
1701220177.700,-10.254,47.363,22.949,13.672,11.719
1701220177.704,19.531,49.316,22.461,23.926,8.789
1701220177.702,30.762,49.316,25.879,29.785,11.719
1701220177.706,24.414,51.270,23.438,31.738,36.133
1701220177.710,10.254,53.223,20.996,45.898,51.758
1701220177.714,30.273,49.805,21.973,29.785,94.727
1701220177.718,38.086,47.363,24.414,4.883,38.086
1701220177.722,10.254,50.293,25.391,13.672,-2.441
1701220177.726,-6.348,55.176,20.996,-4.883,21.973
1701220177.729,4.883,57.129,20.020,-1.953,22.461
1701220177.733,22.461,57.617,22.461,18.555,30.273
1701220177.737,7.812,57.129,22.949,11.230,65.430
1701220177.741,20.996,57.129,20.508,21.484,25.391
1701220177.745,35.156,56.641,22.949,44.434,36.621
1701220177.762,33.203,53.711,26.855,41.504,85.938
1701220177.766,17.578,53.711,25.879,34.180,39.551
1701220177.770,19.531,58.594,24.902,41.992,70.312
1701220177.774,7.324,59.082,22.461,34.668,83.984
1701220177.778,9.277,56.641,22.461,21.973,72.266
1701220177.782,48.828,56.641,22.949,15.625,45.898
1701220177.786,26.367,60.059,23.438,33.203,21.973
1701220177.789,-10.742,61.035,20.508,33.203,33.691
1701220177.793,8.301,58.594,20.508,16.602,68.848
1701220177.797,26.367,58.594,21.973,15.625,30.273
1701220177.801,19.531,58.105,22.461,19.043,-13.184
1701220177.805,9.277,58.105,24.902,26.367,37.598
1701220177.796,11.719,57.617,25.879,33.203,-13.672
1701220177.800,18.066,60.547,21.973,20.020,-54.199
1701220177.804,18.555,59.570,20.020,26.855,-5.859
1701220177.808,34.668,57.617,20.508,35.645,34.668
1701220177.812,41.504,60.059,16.602,30.273,9.277
1701220177.816,37.109,62.012,17.090,20.996,-22.461
1701220177.820,32.715,57.617,21.484,18.066,4.395
1701220177.823,7.812,54.688,23.438,-3.906,22.949
1701220177.827,-2.930,57.129,21.484,-2.441,47.852
1701220177.831,18.555,58.105,21.973,22.461,78.613
1701220177.835,23.926,61.523,20.020,11.230,91.309
1701220177.839,16.602,61.035,20.996,23.438,100.586
1701220177.837,17.578,55.664,23.438,52.734,103.516
1701220177.841,19.043,54.688,23.438,59.570,62.500
1701220177.845,23.926,54.688,24.414,42.480,7.812
1701220177.849,20.508,57.617,22.461,4.883,-12.207
1701220177.853,-1.953,60.547,25.391,16.602,18.555
1701220177.857,6.348,62.500,20.020,29.785,7.324
1701220177.861,51.270,64.453,17.578,10.742,-29.297
1701220177.864,34.668,61.035,24.902,5.371,-22.461
1701220177.868,-2.441,59.082,24.902,28.320,-11.230
1701220177.872,6.348,63.477,21.973,47.363,25.879
1701220177.876,37.109,64.453,20.020,20.020,40.039
1701220177.880,25.879,61.035,21.973,32.227,20.508
1701220177.884,11.230,60.059,22.949,36.133,51.270
1701220177.888,6.836,64.453,20.996,6.348,48.340
1701220177.892,-1.953,64.941,25.391,11.230,24.902
1701220177.896,3.418,61.523,25.391,3.418,58.105
1701220177.900,7.812,62.500,24.902,15.625,36.621
1701220177.904,1.465,65.430,27.344,25.391,4.883
1701220177.908,3.418,63.965,25.391,11.230,17.578
1701220177.911,36.621,63.477,24.414,18.555,-46.875
1701220177.915,31.250,64.941,24.902,39.062,-71.289
1701220177.919,-4.883,62.500,24.902,45.898,18.555
1701220177.923,-1.465,61.523,22.461,25.391,33.203
1701220177.927,31.250,60.547,22.461,19.043,21.973
1701220177.942,14.160,58.594,25.391,14.160,-19.043
1701220177.946,15.137,60.059,25.391,13.672,-12.695
1701220177.950,28.809,58.105,27.344,27.832,21.973
1701220177.954,31.250,56.641,25.879,30.762,20.996
1701220177.958,37.598,56.641,24.902,35.645,14.160
1701220177.962,-1.953,56.152,26.855,40.527,-10.742
1701220177.966,-5.371,61.523,23.926,20.996,33.203
1701220177.969,19.043,61.035,20.996,8.301,64.941
1701220177.973,18.555,60.547,20.508,19.043,23.926
1701220177.977,30.762,64.453,23.926,17.090,45.410
1701220177.981,23.926,63.477,24.902,23.438,86.426
1701220177.985,17.578,61.523,21.973,40.039,54.199
1701220177.987,37.598,64.941,18.555,34.668,23.438
1701220177.991,20.020,67.383,19.531,20.020,47.852
1701220177.995,8.301,63.965,22.461,40.039,37.598
1701220177.999,18.555,60.059,22.461,46.387,53.223
1701220178.003,31.250,60.059,22.461,29.785,47.852
1701220178.007,29.785,65.430,22.461,11.719,17.090
1701220178.011,13.672,68.848,21.973,-11.230,12.207
1701220178.014,-8.301,64.941,20.508,-4.883,11.719
1701220178.018,6.836,63.965,20.020,1.465,75.684
1701220178.022,30.273,62.500,22.461,17.090,52.246
1701220178.026,5.859,58.594,22.949,22.461,-11.719
1701220178.030,-13.184,59.082,19.531,10.742,35.156
1701220178.063,9.766,59.082,20.508,18.555,35.156
1701220178.067,35.645,56.152,24.414,26.367,-13.672
1701220178.071,28.320,55.176,25.391,39.062,7.324
1701220178.075,9.766,57.129,22.461,31.250,-1.465
1701220178.079,31.738,57.129,21.973,22.949,1.953
1701220178.083,41.016,55.176,26.855,24.414,17.090
1701220178.087,11.230,53.711,29.297,26.855,-15.137
1701220178.090,5.371,52.734,24.902,41.504,8.789
1701220178.094,20.020,50.781,23.438,42.969,51.758
1701220178.098,24.902,50.293,26.367,31.250,22.461
1701220178.102,14.160,49.805,22.949,-1.465,-20.020
1701220178.106,21.973,51.758,20.508,2.441,46.875
1701220178.081,26.855,55.176,23.926,57.617,94.727
1701220178.085,27.832,54.199,25.391,40.039,64.941
1701220178.089,32.715,53.223,23.438,15.137,63.965
1701220178.093,19.531,56.152,22.949,11.719,92.773
1701220178.097,20.996,58.594,24.414,43.945,32.715
1701220178.101,40.039,58.105,21.973,37.598,-13.184
1701220178.105,31.738,52.246,22.949,2.930,59.082
1701220178.108,28.320,48.828,26.855,1.953,60.059
1701220178.112,23.438,49.805,27.344,37.598,10.254
1701220178.116,9.766,49.805,26.367,61.035,60.059
1701220178.120,19.043,50.781,24.414,16.602,41.504
1701220178.124,19.531,47.852,24.902,31.250,69.824
1701220178.137,-3.418,46.875,19.531,36.621,89.355
1701220178.141,-4.883,47.852,19.531,21.973,36.621
1701220178.145,16.113,45.410,24.902,25.879,3.906
1701220178.149,33.203,46.387,23.438,2.930,9.277
1701220178.153,29.785,43.457,22.949,29.785,0.000
1701220178.157,24.414,40.039,21.484,37.109,-9.277
1701220178.161,55.176,44.434,30.762,30.762,-12.207
1701220178.164,64.941,46.387,30.273,62.988,38.086
1701220178.168,27.344,43.457,22.461,0.488,48.828
1701220178.172,8.789,41.992,30.273,-10.254,22.949
1701220178.176,17.578,39.551,32.227,37.109,4.395
1701220178.180,36.621,38.086,29.297,33.691,23.438
1701220178.182,24.414,41.016,18.555,36.133,12.695
1701220178.186,22.949,42.480,17.090,42.480,-33.203
1701220178.190,37.109,35.156,24.902,23.438,21.484
1701220178.194,19.531,25.879,29.785,29.785,64.941
1701220178.198,15.137,37.598,39.551,63.477,62.500
1701220178.202,34.668,48.828,48.340,77.637,72.266
1701220178.206,59.082,47.363,48.828,2.441,49.805
1701220178.209,30.762,42.480,49.316,-17.090,35.645
1701220178.213,15.625,40.039,57.129,6.836,-8.789
1701220178.217,10.254,30.273,63.477,24.902,12.695
1701220178.221,-10.742,21.484,63.477,23.926,72.754
1701220178.225,12.695,19.043,67.383,15.625,2.441
1701220178.212,42.480,19.531,78.613,21.484,-74.707
1701220178.216,4.883,21.973,90.332,40.527,-46.387
1701220178.220,-16.602,21.973,101.074,31.250,62.988
1701220178.224,10.742,28.809,116.211,-11.719,103.027
1701220178.228,15.137,32.715,134.277,3.418,24.902
1701220178.232,2.930,33.203,146.484,12.207,15.137
1701220178.236,-2.930,34.668,154.785,17.090,16.602
1701220178.239,29.785,32.715,172.363,31.738,7.812
1701220178.243,53.711,37.109,182.129,-0.977,-2.930
1701220178.247,19.531,37.109,187.500,-9.766,26.367
1701220178.251,-21.484,33.691,200.684,26.855,50.781
1701220178.255,-29.785,36.133,206.543,-4.395,-11.230
1701220178.257,-0.488,36.133,207.520,-30.273,1.953
1701220178.261,8.301,37.598,207.520,-34.668,71.289
1701220178.265,12.207,42.969,205.078,-17.090,67.871
1701220178.269,-11.230,45.410,202.637,-6.348,40.527
1701220178.273,-32.227,45.898,197.754,-23.438,51.758
1701220178.277,-1.465,42.969,193.848,-20.020,94.727
1701220178.281,-5.371,41.016,191.406,-8.301,24.414
1701220178.284,-24.902,38.574,182.129,4.883,-20.996
1701220178.288,-2.441,38.574,165.039,5.859,42.969
1701220178.292,-0.488,43.457,148.438,-3.906,46.387
1701220178.296,-32.227,42.480,137.207,-27.832,15.625
1701220178.300,-41.992,38.086,126.465,-43.945,17.578
1701220178.317,-20.996,39.062,113.281,-44.922,-6.348
1701220178.321,-0.488,41.992,100.098,-41.016,2.930
1701220178.325,2.441,39.551,88.867,-24.902,28.320
1701220178.329,-2.930,40.527,76.660,-31.250,59.570
1701220178.333,-12.695,44.434,63.965,-4.883,73.242
1701220178.337,2.441,44.434,53.711,40.039,48.828
1701220178.341,19.043,44.922,40.527,4.883,29.785
1701220178.344,5.859,43.945,28.809,-39.062,28.809
1701220178.348,-26.367,42.480,20.508,-16.602,23.926
1701220178.352,3.906,43.945,13.184,19.043,18.066
1701220178.356,27.832,46.387,6.348,11.230,38.086
1701220178.360,-1.953,48.340,0.977,-1.465,29.785
1701220178.349,-16.602,44.922,-4.395,15.137,35.645
1701220178.353,-1.953,42.480,-8.301,19.043,36.621
1701220178.357,20.020,41.992,-12.207,36.621,3.906
1701220178.361,-1.465,41.992,-17.578,45.410,20.020
1701220178.365,-2.441,42.480,-19.531,14.160,22.949
1701220178.369,21.484,44.922,-23.438,6.348,45.410
1701220178.373,28.809,46.387,-25.879,-1.953,44.922
1701220178.376,20.020,46.875,-26.855,-5.859,28.320
1701220178.380,26.367,50.293,-28.320,11.719,59.570
1701220178.384,17.578,48.340,-28.320,43.457,57.129
1701220178.388,9.766,45.898,-26.367,24.414,76.172
1701220178.392,24.414,45.898,-27.832,-6.348,103.516
1701220178.407,28.809,48.340,-30.273,14.648,66.406
1701220178.411,29.785,49.805,-25.879,50.293,23.926
1701220178.415,37.109,45.410,-24.902,48.828,-9.766
1701220178.419,42.480,43.945,-27.832,20.508,20.020
1701220178.423,11.230,42.480,-26.367,-3.418,44.434
1701220178.427,-7.812,44.922,-22.461,40.039,-14.160
1701220178.431,7.324,48.828,-23.438,36.621,9.766
1701220178.434,30.762,50.781,-27.832,-15.625,-1.465
1701220178.438,45.410,49.805,-26.367,-4.395,9.277
1701220178.442,27.832,47.363,-20.508,11.230,-20.508
1701220178.446,15.137,50.781,-23.438,20.996,-31.738
1701220178.450,33.691,49.805,-23.926,14.160,11.230
1701220178.452,34.180,41.992,-20.020,33.203,13.672
1701220178.456,24.414,43.945,-20.996,38.086,36.133
1701220178.460,31.738,49.316,-19.043,24.414,7.324
1701220178.464,11.719,41.016,-15.625,34.180,15.137
1701220178.468,29.297,39.551,-16.602,47.363,14.160
1701220178.472,45.410,43.457,-15.625,43.457,1.465
1701220178.476,21.973,42.480,-13.672,23.438,7.812
1701220178.479,22.949,46.387,-13.184,21.484,13.184
1701220178.483,37.109,49.316,-13.184,21.484,29.297
1701220178.487,40.527,47.852,-7.324,21.484,60.059
1701220178.491,25.879,48.340,-6.836,18.066,24.902
1701220178.495,17.578,44.434,-10.742,23.438,47.363
1701220178.497,28.320,43.945,-8.789,14.648,83.984
1701220178.501,25.391,46.875,-9.277,28.809,34.668
1701220178.505,26.367,44.922,-7.324,57.617,26.855
1701220178.509,10.254,43.457,-3.906,42.480,28.320
1701220178.513,55.664,41.992,0.488,25.391,2.441
1701220178.517,75.684,43.457,1.465,11.719,-5.371
1701220178.521,-0.488,39.062,3.906,27.832,-0.977
1701220178.524,-25.391,37.598,8.789,41.992,16.602
1701220178.528,19.531,42.969,3.906,34.180,3.906
1701220178.532,45.410,42.969,-2.441,10.742,-14.160
1701220178.536,19.531,39.062,-0.488,4.395,-46.875
1701220178.540,-2.441,37.598,0.977,52.246,-16.602
1701220178.543,5.859,41.016,0.977,55.664,30.762
1701220178.547,34.180,39.551,1.953,14.160,44.434
1701220178.551,30.273,39.551,3.906,8.789,77.148
1701220178.555,22.949,40.527,6.348,51.758,49.316
1701220178.559,28.320,36.621,7.324,64.941,62.500
1701220178.563,43.457,36.621,8.789,28.809,19.531
1701220178.567,43.945,39.062,5.859,4.395,-8.301
1701220178.570,36.133,38.086,6.348,29.785,58.594
1701220178.574,28.320,34.668,15.625,44.922,46.875
1701220178.578,13.672,34.180,13.672,25.391,13.184
1701220178.582,22.949,36.133,9.766,35.156,31.738
1701220178.586,17.090,32.715,12.207,37.109,99.609
1701220178.647,39.062,32.227,7.324,25.391,55.664
1701220178.651,41.016,35.156,5.859,46.875,-8.789
1701220178.655,34.668,35.645,10.742,58.594,26.855
1701220178.659,21.484,34.668,10.742,17.578,82.031
1701220178.663,-10.254,35.156,12.207,13.184,23.926
1701220178.667,20.508,37.109,14.160,24.414,0.488
1701220178.671,39.062,32.715,11.719,18.555,52.734
1701220178.674,17.090,33.203,12.695,31.250,29.297
1701220178.678,29.297,41.016,15.625,34.180,-22.949
1701220178.682,24.902,35.645,13.672,39.062,-27.344
1701220178.686,22.949,31.738,12.207,41.992,54.199
1701220178.690,25.391,34.668,10.742,24.902,26.855
1701220178.651,11.230,35.645,6.836,16.602,32.715
1701220178.655,16.602,34.668,6.348,32.715,63.477
1701220178.659,35.156,26.367,12.207,36.621,-8.789
1701220178.663,44.922,21.973,16.602,23.926,-7.324
1701220178.667,29.785,29.297,14.648,14.160,-15.625
1701220178.671,20.996,32.715,15.137,35.645,4.883
1701220178.675,22.949,29.785,20.020,49.805,26.855
1701220178.678,17.578,27.344,19.043,57.129,-6.836
1701220178.682,14.648,28.809,16.113,32.227,20.020
1701220178.686,37.598,30.762,16.602,12.695,-10.254
1701220178.690,26.855,28.320,18.555,39.551,4.395
1701220178.694,21.484,28.320,16.602,20.020,23.926
1701220178.677,30.762,31.738,15.625,15.137,30.273
1701220178.681,1.465,30.273,19.043,20.508,89.844
1701220178.685,5.859,30.762,15.625,28.320,13.672
1701220178.689,23.438,31.738,14.160,45.410,-50.781
1701220178.693,15.137,32.715,16.113,4.395,43.945
1701220178.697,23.438,25.879,14.648,-12.207,65.918
1701220178.701,16.113,18.555,14.648,14.160,41.016
1701220178.704,31.250,27.832,16.602,50.293,23.438
1701220178.708,44.922,30.762,15.137,28.809,28.320
1701220178.712,-1.465,27.832,13.184,3.418,8.789
1701220178.716,-7.812,28.809,19.531,25.879,29.785
1701220178.720,26.367,33.691,23.438,63.965,84.961
1701220178.737,38.574,26.855,17.090,68.359,38.086
1701220178.741,20.996,21.484,15.137,11.719,-1.465
1701220178.745,6.348,28.809,19.043,1.953,-8.789
1701220178.749,14.160,29.297,17.090,21.973,-34.668
1701220178.753,27.832,24.414,19.043,32.715,1.465
1701220178.757,37.598,22.461,20.996,18.066,41.504
1701220178.761,16.113,29.297,20.020,38.574,90.332
1701220178.764,-23.438,30.273,20.508,51.270,79.102
1701220178.768,2.930,22.949,19.531,3.906,83.984
1701220178.772,47.363,20.508,20.508,3.418,59.570
1701220178.776,29.785,19.043,21.484,22.461,21.484
1701220178.780,-6.348,18.066,20.020,14.160,19.531
1701220178.797,2.930,20.996,20.508,19.531,-6.836
1701220178.801,35.645,23.438,25.391,37.109,27.344
1701220178.805,21.973,26.855,25.391,25.391,66.895
1701220178.809,1.953,28.320,19.043,13.672,56.641
1701220178.813,25.391,21.484,19.043,40.039,65.430
1701220178.817,34.668,20.508,24.414,64.453,21.973
1701220178.821,-4.395,24.902,21.484,20.508,12.695
1701220178.824,-4.883,22.461,18.066,-20.996,-5.859
1701220178.828,21.973,23.438,24.902,19.531,-26.367
1701220178.832,40.039,29.297,26.367,35.156,29.785
1701220178.836,52.246,28.809,22.949,12.207,59.082
1701220178.840,2.930,24.414,20.020,27.832,38.086
1701220178.828,4.883,19.531,23.438,36.621,35.156
1701220178.832,21.484,23.926,23.438,28.320,65.430
1701220178.836,28.320,35.645,18.066,17.090,51.270
1701220178.840,36.133,35.156,20.020,55.664,25.391
1701220178.844,-9.277,22.461,20.996,23.926,39.062
1701220178.848,-7.324,20.020,22.461,-28.320,-10.742
1701220178.852,30.273,25.879,19.531,-4.395,15.625
1701220178.855,15.625,26.855,18.555,-2.930,76.172
1701220178.859,-12.695,30.273,23.438,11.230,53.223
1701220178.863,-18.555,25.391,26.855,20.996,-5.371
1701220178.867,23.438,17.090,24.902,20.020,-51.270
1701220178.871,32.227,25.879,18.555,19.043,-34.668
1701220178.891,11.719,28.320,22.461,27.344,-29.297
1701220178.895,12.695,22.949,25.879,20.996,3.418
1701220178.899,12.695,22.461,25.879,9.277,55.176
1701220178.903,15.625,23.438,30.273,11.719,29.297
1701220178.907,3.906,25.879,28.809,21.484,32.715
1701220178.911,-4.883,30.762,26.855,49.805,59.082
1701220178.915,32.227,33.691,26.855,25.879,31.738
1701220178.918,24.414,27.832,25.391,-7.812,9.766
1701220178.922,-6.836,24.414,24.902,-6.836,5.859
1701220178.926,0.488,31.738,23.438,26.367,33.691
1701220178.930,21.484,36.133,20.508,38.574,63.477
1701220178.934,33.691,35.156,24.414,31.250,5.371
1701220178.933,15.137,38.574,32.715,46.387,11.230
1701220178.937,-13.184,31.250,29.297,38.086,50.293
1701220178.941,1.953,31.738,24.414,27.832,0.977
1701220178.945,26.367,33.691,29.297,34.180,0.977
1701220178.949,22.949,33.691,33.691,49.316,-12.695
1701220178.953,11.230,38.574,28.809,20.508,-32.227
1701220178.957,9.766,39.062,27.832,14.160,10.742
1701220178.960,37.109,41.992,26.367,36.133,9.766
1701220178.964,47.852,39.551,25.391,-11.719,21.973
1701220178.968,16.113,37.598,24.414,1.953,35.645
1701220178.972,-6.836,40.527,24.414,19.043,115.234
1701220178.976,15.137,43.945,23.926,-4.883,126.465
1701220178.962,30.762,45.410,23.438,0.977,41.992
1701220178.966,28.809,44.434,22.461,1.465,28.809
1701220178.970,18.066,46.875,23.438,22.461,15.625
1701220178.974,7.324,43.945,23.926,31.738,59.570
1701220178.978,7.812,43.945,23.438,3.418,45.898
1701220178.982,30.762,42.480,22.949,26.855,-1.953
1701220178.986,60.059,46.875,24.414,55.176,29.785
1701220178.989,32.227,47.363,26.855,30.762,67.383
1701220178.993,10.742,41.992,26.367,35.645,68.848
1701220178.997,16.113,46.387,22.461,41.016,96.191
1701220179.001,12.207,50.781,21.973,24.902,80.078
1701220179.005,8.789,51.758,25.391,11.230,73.242
1701220179.038,25.391,47.363,27.344,25.391,59.570
1701220179.042,45.898,41.016,21.973,40.527,-5.371
1701220179.046,26.367,44.922,20.508,35.156,10.254
1701220179.050,-5.859,44.922,26.855,59.082,52.734
1701220179.054,9.277,33.203,19.043,22.461,67.383
1701220179.058,27.832,40.527,14.648,-22.461,53.711
1701220179.062,3.906,46.875,24.902,4.395,42.480
1701220179.065,-8.301,39.062,25.879,37.598,36.621
1701220179.069,31.738,42.480,21.484,41.016,41.992
1701220179.073,52.734,41.016,27.344,39.062,76.660
1701220179.077,23.438,36.133,29.297,13.672,92.285
1701220179.081,18.066,38.574,22.949,-1.465,53.223
1701220179.052,16.602,35.645,28.320,38.574,3.418
1701220179.056,13.184,34.180,31.250,59.082,12.695
1701220179.060,32.227,42.480,28.320,20.020,41.992
1701220179.064,5.859,36.133,29.785,5.371,9.766
1701220179.068,-8.789,32.227,24.414,8.301,-18.066
1701220179.072,41.504,36.621,22.949,-3.906,30.762
1701220179.076,65.430,36.133,30.762,17.578,54.688
1701220179.079,-8.301,35.645,31.250,19.531,24.414
1701220179.083,-29.785,31.250,27.832,27.344,40.527
1701220179.087,2.930,30.762,28.809,39.062,41.504
1701220179.091,31.250,37.109,25.391,37.598,13.672
1701220179.095,51.270,38.574,21.484,42.480,-4.395
1701220179.129,17.090,33.203,26.367,47.852,32.715
1701220179.133,0.488,30.273,23.926,24.902,107.422
1701220179.137,13.672,25.391,27.344,-1.953,74.707
1701220179.141,16.113,30.273,33.203,14.648,2.441
1701220179.145,18.066,37.109,31.738,31.738,26.367
1701220179.149,7.324,38.086,29.297,30.762,63.965
1701220179.153,-7.812,40.039,24.902,4.395,27.344
1701220179.156,7.324,40.039,20.508,-23.926,7.812
1701220179.160,7.812,38.086,23.926,22.461,49.805
1701220179.164,-12.207,34.668,27.832,37.598,66.406
1701220179.168,27.832,37.598,26.367,20.020,67.383
1701220179.172,53.711,43.945,26.367,25.391,95.215
1701220179.157,24.902,35.645,35.156,59.570,76.172
1701220179.161,8.301,39.551,28.320,44.434,49.316
1701220179.165,20.020,43.945,16.113,-1.465,12.207
1701220179.169,50.781,41.992,22.461,11.230,61.523
1701220179.173,18.555,48.828,22.949,1.465,115.723
1701220179.177,2.930,40.527,18.555,-1.465,65.430
1701220179.181,19.531,39.551,25.879,14.648,41.504
1701220179.184,29.297,47.852,29.297,48.828,12.695
1701220179.188,39.062,49.805,25.391,57.129,64.941
1701220179.192,25.879,54.199,21.973,20.996,67.383
1701220179.196,17.578,45.898,24.414,9.277,27.344
1701220179.200,32.227,48.828,29.785,15.625,53.711
1701220179.202,37.109,56.641,29.297,35.156,52.246
1701220179.206,-24.414,51.270,23.926,18.066,53.223
1701220179.210,-20.508,47.363,25.391,20.508,75.684
1701220179.214,40.039,47.852,28.809,50.293,97.168
1701220179.218,50.293,42.480,26.367,26.855,62.012
1701220179.222,19.043,46.875,22.461,4.883,20.508
1701220179.226,-4.395,59.082,21.484,25.879,55.664
1701220179.229,31.738,60.547,22.461,32.715,83.496
1701220179.233,45.898,62.012,24.902,35.156,48.340
1701220179.237,14.160,52.246,30.762,45.410,10.254
1701220179.241,26.855,57.129,27.344,10.254,28.320
1701220179.245,15.137,66.895,20.996,7.812,79.590
1701220179.247,18.555,59.082,30.273,40.039,76.172
1701220179.251,28.809,58.594,32.715,27.832,51.758
1701220179.255,-13.672,63.965,25.879,2.930,60.547
1701220179.259,-6.348,63.965,26.855,2.930,73.730
1701220179.263,25.879,62.988,29.297,13.672,76.660
1701220179.267,18.555,59.082,30.273,-0.977,43.945
1701220179.271,10.742,58.105,35.156,10.254,20.020
1701220179.274,9.766,65.918,31.250,41.504,53.711
1701220179.278,21.973,70.312,23.926,26.855,74.219
1701220179.282,39.551,62.500,25.391,-1.465,70.312
1701220179.286,16.113,53.223,28.320,6.348,67.383
1701220179.290,-25.391,55.664,30.273,15.137,75.195
1701220179.294,-7.812,59.082,24.414,-2.930,80.078
1701220179.298,19.043,56.152,23.926,-1.953,78.125
1701220179.302,15.137,57.129,26.855,7.324,67.871
1701220179.306,16.113,63.477,26.367,17.578,54.199
1701220179.310,7.324,58.594,24.902,17.090,63.965
1701220179.314,14.648,54.688,20.996,3.906,72.266
1701220179.318,10.254,53.223,25.391,4.395,53.711
1701220179.321,-19.043,52.246,27.344,10.742,39.062
1701220179.325,-5.371,54.199,23.438,21.484,54.688
1701220179.329,1.465,54.199,20.020,18.066,81.055
1701220179.333,2.441,46.387,20.996,7.324,53.711
1701220179.337,-1.465,46.387,25.391,21.484,26.855
1701220179.353,10.254,58.594,25.391,11.230,63.477
1701220179.357,24.414,52.734,24.902,-12.695,72.754
1701220179.361,60.059,51.270,30.762,19.043,58.105
1701220179.365,28.809,51.758,31.738,26.367,28.809
1701220179.369,-12.695,50.293,29.785,23.926,29.297
1701220179.373,13.184,50.293,31.738,24.902,87.891
1701220179.377,22.461,47.852,27.344,-3.906,61.523
1701220179.380,30.273,48.340,23.926,0.488,-15.137
1701220179.384,20.508,44.434,27.344,1.465,-13.184
1701220179.388,6.836,43.945,27.344,20.996,41.504
1701220179.392,12.695,43.945,18.555,-1.953,45.898
1701220179.396,21.484,39.062,23.926,0.488,9.277
1701220179.382,2.441,34.180,32.227,19.531,-21.973
1701220179.386,7.324,33.203,22.949,14.160,0.977
1701220179.390,12.207,41.504,20.996,18.066,1.953
1701220179.394,11.719,44.922,23.926,-7.812,-34.180
1701220179.398,16.113,41.016,27.832,7.812,-28.320
1701220179.402,-5.859,44.434,34.180,31.250,2.441
1701220179.406,9.766,48.340,30.762,20.020,41.016
1701220179.409,15.137,43.945,27.832,0.000,22.461
1701220179.413,10.254,40.039,21.973,-14.160,18.066
1701220179.417,18.555,44.922,19.531,-11.719,20.508
1701220179.421,9.766,45.898,26.855,27.344,10.254
1701220179.425,17.090,40.039,30.273,36.621,9.277
1701220179.442,15.625,42.480,23.926,-15.137,-5.859
1701220179.446,8.789,47.852,20.996,-7.324,16.602
1701220179.450,5.371,45.898,25.879,20.020,44.922
1701220179.454,7.812,50.293,24.414,26.855,34.668
1701220179.458,22.949,52.246,28.809,37.598,-10.742
1701220179.462,15.137,43.457,30.273,32.227,22.461
1701220179.466,36.621,48.340,27.344,43.457,28.809
1701220179.469,42.969,62.012,27.832,47.852,-10.742
1701220179.473,17.578,62.012,25.879,29.297,0.977
1701220179.477,16.602,58.594,28.320,20.020,-29.297
1701220179.481,11.230,62.988,29.785,52.734,-18.555
1701220179.485,21.484,71.289,25.391,55.176,39.062
1701220179.487,46.875,74.219,25.879,5.371,10.254
1701220179.491,37.598,71.777,26.855,17.090,-31.738
1701220179.495,13.672,67.871,24.414,8.301,-33.203
1701220179.499,30.762,71.777,19.043,-11.719,1.465
1701220179.503,31.250,70.312,19.043,-12.695,7.324
1701220179.507,26.855,64.453,23.438,-3.906,-24.902
1701220179.511,12.207,68.359,21.973,41.016,-13.672
1701220179.514,1.465,71.289,20.508,13.672,1.465
1701220179.518,38.574,69.336,20.996,-3.906,-22.949
1701220179.522,26.855,62.988,21.484,40.039,10.254
1701220179.526,-8.301,52.246,20.508,1.953,2.930
1701220179.530,-6.348,58.105,19.043,-19.043,-11.230
1701220179.548,37.598,61.035,22.949,38.086,-0.977
1701220179.552,73.242,63.477,21.484,56.152,-34.668
1701220179.556,26.855,65.918,16.602,-2.441,-58.594
1701220179.560,-24.902,57.617,19.531,3.906,-45.410
1701220179.564,-13.184,52.246,23.926,20.508,-4.395
1701220179.568,29.785,48.340,23.926,13.672,-34.668
1701220179.572,41.016,50.781,20.020,40.527,-64.453
1701220179.575,20.508,46.387,20.996,56.152,-28.809
1701220179.579,18.555,36.133,25.879,55.664,0.000
1701220179.583,36.133,35.645,25.391,25.391,-36.133
1701220179.587,46.875,38.086,19.531,22.461,-87.891
1701220179.591,22.461,25.391,22.949,29.785,-14.160
1701220179.577,32.715,25.391,21.973,32.227,-2.930
1701220179.581,46.387,31.738,16.113,30.762,-35.645
1701220179.585,12.695,21.973,19.531,5.859,-6.836
1701220179.589,6.348,19.043,26.855,41.016,-55.176
1701220179.593,57.617,20.508,25.879,28.320,-32.227
1701220179.597,57.617,18.555,23.438,3.906,-18.066
1701220179.601,23.926,14.160,18.555,23.926,-43.945
1701220179.604,12.695,15.625,19.043,21.973,-28.320
1701220179.608,18.066,19.531,23.438,18.555,-15.137
1701220179.612,41.016,13.672,24.414,39.551,49.316
1701220179.616,61.523,9.766,26.855,41.504,31.738
1701220179.620,40.039,3.906,26.855,41.992,26.855
1701220179.622,28.320,5.371,28.320,69.824,36.621
1701220179.626,31.250,14.648,27.832,64.941,38.574
1701220179.630,41.016,11.719,28.320,54.688,28.809
1701220179.634,52.246,10.742,28.320,58.594,-32.715
1701220179.638,35.156,11.230,22.461,66.406,-13.672
1701220179.642,25.879,8.301,18.066,48.828,-34.180
1701220179.646,44.434,9.766,21.484,36.133,-45.410
1701220179.649,46.387,5.859,25.879,39.551,4.883
1701220179.653,40.527,9.766,25.879,7.812,-3.418
1701220179.657,28.320,20.508,25.391,31.738,4.395
1701220179.661,19.043,19.531,26.367,22.461,44.922
1701220179.665,25.391,18.555,22.949,-22.461,36.133
1701220179.682,30.273,15.137,21.973,4.883,6.348
1701220179.686,20.996,6.836,20.508,36.133,15.625
1701220179.690,16.602,7.812,19.043,43.945,5.859
1701220179.694,51.270,14.648,26.367,53.711,-37.598
1701220179.698,29.785,20.996,30.762,33.203,4.395
1701220179.702,-9.766,15.625,31.738,34.180,35.156
1701220179.706,20.996,14.160,32.715,54.688,20.020
1701220179.709,42.969,24.414,30.762,33.203,-2.930
1701220179.713,55.176,25.391,28.320,22.949,6.348
1701220179.717,44.922,21.484,25.879,25.391,7.812
1701220179.721,12.207,18.066,22.949,59.082,-0.488
1701220179.725,38.086,19.043,22.461,73.242,58.105
1701220179.727,59.570,25.391,20.996,39.062,48.828
1701220179.731,23.438,26.367,25.879,16.602,-11.230
1701220179.735,8.301,28.320,27.832,49.316,20.508
1701220179.739,37.598,31.250,17.578,64.453,67.383
1701220179.743,62.012,28.320,20.020,29.785,80.566
1701220179.747,24.902,23.438,27.344,40.039,54.688
1701220179.751,4.883,22.461,23.926,68.848,43.457
1701220179.754,53.711,27.344,20.996,35.645,35.156
1701220179.758,50.293,29.297,17.578,9.277,-12.207
1701220179.762,20.508,30.762,18.555,2.930,12.695
1701220179.766,20.508,33.203,22.461,14.160,69.824
1701220179.770,24.414,25.391,22.461,13.672,40.527
1701220179.773,20.508,18.555,19.043,13.672,-1.953
1701220179.777,39.062,29.785,17.578,21.973,10.254
1701220179.781,50.781,37.598,20.508,62.988,16.602
1701220179.785,27.832,32.227,19.531,109.863,76.660
1701220179.789,26.855,31.738,18.066,22.949,68.359
1701220179.793,7.812,24.414,18.555,-16.602,6.348
1701220179.797,4.395,13.672,20.020,19.043,7.324
1701220179.800,24.902,22.461,18.555,17.090,7.324
1701220179.804,40.039,30.273,20.020,22.461,44.922
1701220179.808,31.738,25.879,25.879,35.645,21.973
1701220179.812,1.953,23.926,27.344,32.227,22.461
1701220179.816,1.953,25.391,28.809,18.555,56.641
1701220179.832,12.207,22.949,27.344,52.734,28.320
1701220179.836,36.133,20.508,23.438,26.855,41.992
1701220179.840,37.109,25.879,15.625,-17.090,63.477
1701220179.844,6.836,30.273,13.672,0.977,31.738
1701220179.848,-1.465,30.273,19.531,39.062,0.000
1701220179.852,28.320,34.668,21.484,34.180,27.344
1701220179.856,50.781,33.203,18.066,-28.809,32.227
1701220179.859,22.949,22.949,22.949,-14.160,13.184
1701220179.863,-4.395,26.855,25.879,16.113,57.129
1701220179.867,32.715,28.809,23.926,17.090,81.543
1701220179.871,49.316,29.785,23.926,15.625,44.434
1701220179.875,5.371,37.598,24.414,28.809,11.719
1701220179.877,4.883,32.715,23.438,57.129,3.906
1701220179.881,16.113,20.996,26.367,76.660,16.113
1701220179.885,27.344,17.090,28.809,47.363,37.598
1701220179.889,24.902,20.020,25.879,7.324,2.930
1701220179.893,-11.230,30.762,22.461,-17.090,-5.371
1701220179.897,1.953,45.898,21.973,-7.324,-32.715
1701220179.901,44.434,44.434,25.391,18.555,-4.883
1701220179.904,26.855,39.062,28.320,10.254,119.141
1701220179.908,2.441,36.133,28.320,14.160,84.473
1701220179.912,-2.930,35.645,27.832,16.113,18.555
1701220179.916,3.906,31.738,25.879,6.836,26.367
1701220179.920,27.832,32.715,25.879,4.395,36.621
1701220179.907,25.879,51.270,26.367,17.090,25.879
1701220179.911,30.762,57.129,18.555,41.992,-15.137
1701220179.915,23.438,47.852,23.438,29.785,20.020
1701220179.919,7.324,40.039,26.855,-10.742,-4.883
1701220179.923,15.137,47.852,24.902,-2.930,-9.277
1701220179.927,21.973,58.594,25.879,35.645,18.066
1701220179.931,21.973,56.641,24.902,30.762,-29.785
1701220179.934,19.043,52.734,24.902,1.465,-7.812
1701220179.938,21.484,63.965,28.320,6.836,40.527
1701220179.942,-10.254,64.453,24.902,16.113,29.297
1701220179.946,0.977,71.289,17.578,20.996,-0.977
1701220179.950,31.250,77.148,24.414,73.730,35.156
1701220179.953,37.109,72.754,34.668,68.359,47.852
1701220179.957,21.484,61.035,37.598,52.734,8.789
1701220179.961,-1.465,60.059,30.762,45.898,63.965
1701220179.965,33.691,73.242,25.879,0.977,111.816
1701220179.969,39.062,73.730,28.320,-2.441,18.066
1701220179.973,24.902,82.520,23.926,12.207,-9.766
1701220179.977,28.809,96.191,25.391,52.734,11.230
1701220179.980,18.555,91.797,27.832,40.039,15.137
1701220179.984,45.898,84.961,18.555,3.906,56.641
1701220179.988,27.344,84.961,22.949,32.227,18.066
1701220179.992,-11.719,105.957,32.715,38.086,47.363
1701220179.996,23.438,137.207,29.785,43.457,59.570
1701220180.057,30.273,145.020,26.855,86.914,44.434
1701220180.061,8.301,140.137,26.367,34.668,21.484
1701220180.065,22.461,137.207,24.902,21.484,-13.672
1701220180.069,20.020,138.184,28.320,59.570,36.621
1701220180.073,44.922,129.883,28.320,45.410,70.312
1701220180.077,69.824,127.930,29.785,58.105,23.926
1701220180.081,30.273,138.184,35.645,44.434,-11.719
1701220180.084,14.648,138.184,42.969,40.527,46.875
1701220180.088,35.156,131.836,41.016,68.848,97.168
1701220180.092,56.152,125.977,28.809,54.199,72.266
1701220180.096,51.270,123.047,24.414,44.434,68.848
1701220180.100,19.043,120.605,26.855,40.039,83.496
1701220180.062,12.695,119.629,28.809,35.645,77.148
1701220180.066,45.898,126.953,31.738,45.410,54.199
1701220180.070,45.410,132.324,26.855,39.551,-6.348
1701220180.074,5.371,126.953,27.832,43.945,-13.672
1701220180.078,3.418,118.164,33.691,47.363,40.039
1701220180.082,38.086,118.164,32.227,49.805,37.598
1701220180.086,69.824,122.070,30.762,49.316,23.438
1701220180.089,49.805,119.141,29.297,51.270,1.465
1701220180.093,25.391,115.234,28.809,43.457,-16.602
1701220180.097,39.062,114.258,26.855,36.621,14.160
1701220180.101,42.480,114.258,28.809,29.297,3.418
1701220180.105,17.578,105.469,30.273,101.074,-34.668
1701220180.103,18.555,100.586,26.367,68.848,-7.324
1701220180.107,21.973,97.168,22.949,-55.176,56.152
1701220180.111,45.898,97.168,22.461,-24.902,34.668
1701220180.115,56.152,95.703,27.832,7.812,4.883
1701220180.119,9.277,88.379,32.715,34.668,-32.227
1701220180.123,21.973,87.402,29.785,38.574,-17.578
1701220180.127,29.785,83.984,26.855,27.832,54.688
1701220180.130,26.367,80.566,28.809,42.969,56.641
1701220180.134,21.484,80.566,26.855,41.504,12.207
1701220180.138,5.859,73.730,21.973,30.762,28.320
1701220180.142,9.277,65.430,22.461,32.715,74.219
1701220180.146,21.484,58.105,29.785,25.879,68.359
1701220180.132,50.781,58.594,28.809,17.578,-4.395
1701220180.136,36.621,64.941,19.043,9.766,-1.953
1701220180.140,27.832,57.129,24.414,19.043,16.602
1701220180.144,26.367,44.922,29.785,27.832,13.184
1701220180.148,22.949,43.457,22.461,21.484,61.523
1701220180.152,38.086,39.062,24.902,77.637,47.363
1701220180.156,41.992,36.133,29.297,61.523,62.500
1701220180.159,30.273,43.457,27.344,-21.973,121.582
1701220180.163,24.414,40.039,22.949,-3.906,38.086
1701220180.167,20.020,32.227,19.531,26.855,5.371
1701220180.171,19.531,32.227,15.625,24.902,74.707
1701220180.175,25.879,30.762,12.207,15.137,48.828
1701220180.177,-2.930,27.344,14.648,29.785,40.527
1701220180.181,-7.812,26.367,19.531,21.973,45.898
1701220180.185,16.602,25.879,23.438,32.227,34.668
1701220180.189,57.617,22.949,20.020,22.949,28.320
1701220180.193,40.527,9.277,20.020,19.531,-6.836
1701220180.197,-11.230,3.418,20.020,0.000,22.949
1701220180.201,14.648,13.184,19.043,11.230,64.941
1701220180.204,56.152,17.578,20.996,48.340,54.688
1701220180.208,39.551,11.719,23.438,18.555,21.484
1701220180.212,40.039,5.371,21.973,18.066,0.488
1701220180.216,22.461,-0.488,21.973,20.020,31.250
1701220180.220,22.949,-3.418,23.438,34.180,21.484
1701220180.237,53.223,-8.301,23.926,34.668,7.812
1701220180.241,56.152,-13.672,28.809,36.621,-4.395
1701220180.245,34.668,-14.160,29.297,36.133,59.570
1701220180.249,18.066,-20.020,27.832,4.883,51.270
1701220180.253,46.387,-26.367,33.691,58.594,-22.461
1701220180.257,36.133,-35.156,36.133,98.633,7.812
1701220180.261,22.949,-37.598,30.762,21.973,45.898
1701220180.264,14.648,-35.645,28.320,-1.953,62.012
1701220180.268,16.113,-36.133,24.902,10.254,51.758
1701220180.272,33.691,-38.086,22.461,6.348,39.551
1701220180.276,23.926,-40.039,22.461,18.066,6.836
1701220180.280,21.484,-36.621,22.461,20.508,0.488
1701220180.284,56.152,-38.574,22.949,25.391,40.039
1701220180.288,47.363,-50.293,29.297,31.250,30.273
1701220180.292,2.930,-56.152,33.203,37.109,33.203
1701220180.296,-10.254,-55.176,27.344,41.016,42.969
1701220180.300,4.395,-54.199,25.879,33.691,17.578
1701220180.304,29.297,-55.664,26.367,14.648,62.500
1701220180.308,17.090,-56.641,23.926,4.883,38.086
1701220180.311,-9.277,-56.641,20.996,-5.859,8.301
1701220180.315,50.781,-48.340,21.484,48.340,15.625
1701220180.319,71.289,-47.852,28.320,95.703,0.977
1701220180.323,34.668,-53.711,26.855,7.324,-17.578
1701220180.327,6.836,-46.875,21.973,-24.414,24.414
1701220180.358,11.719,-44.434,29.785,48.340,41.504
1701220180.362,39.551,-42.480,30.273,24.902,73.242
1701220180.366,22.461,-42.480,28.320,35.156,74.707
1701220180.370,40.039,-44.434,30.762,51.758,31.250
1701220180.374,27.832,-39.062,29.297,-18.066,24.414
1701220180.378,6.348,-39.551,30.762,-0.488,12.695
1701220180.382,24.902,-41.992,29.297,0.977,71.289
1701220180.385,0.977,-39.062,26.367,-14.160,48.340
1701220180.389,16.113,-32.715,25.879,28.809,35.645
1701220180.393,28.320,-35.645,28.320,36.621,59.082
1701220180.397,19.531,-41.504,28.320,32.715,-12.207
1701220180.401,28.320,-37.109,25.391,26.855,24.902
1701220180.432,32.715,-35.156,24.414,33.203,61.523
1701220180.436,50.293,-36.133,21.973,50.293,60.059
1701220180.440,31.738,-36.621,25.879,18.555,34.668
1701220180.444,11.719,-43.945,31.738,26.855,9.277
1701220180.448,19.531,-41.992,29.297,49.805,-23.926
1701220180.452,32.227,-36.621,23.926,31.250,-29.785
1701220180.456,15.625,-39.062,24.414,1.953,-2.441
1701220180.459,30.273,-39.062,23.926,-3.906,-7.812
1701220180.463,60.059,-41.016,23.438,40.527,-2.930
1701220180.467,20.508,-43.457,26.855,59.082,12.695
1701220180.471,6.836,-40.527,29.785,14.160,31.738
1701220180.475,38.086,-40.527,29.785,11.719,20.020
1701220180.437,25.879,-40.527,28.809,19.043,-35.156
1701220180.441,3.418,-43.457,28.320,5.371,-9.277
1701220180.445,11.230,-53.711,24.902,18.066,90.332
1701220180.449,18.555,-57.129,25.391,24.902,73.242
1701220180.453,10.254,-58.105,29.297,17.090,-16.113
1701220180.457,9.766,-63.965,27.344,31.738,19.531
1701220180.461,12.695,-62.988,27.344,37.598,30.273
1701220180.464,53.711,-64.941,31.738,39.551,-20.996
1701220180.468,53.223,-65.430,28.809,43.457,20.996
1701220180.472,17.578,-63.477,27.832,37.598,30.273
1701220180.476,16.113,-61.035,21.973,-8.301,75.195
1701220180.480,-1.953,-53.711,18.066,-3.418,87.891
1701220180.463,8.301,-50.293,20.508,-20.508,31.738
1701220180.467,16.602,-49.805,20.996,-30.273,4.395
1701220180.471,4.395,-47.852,25.879,46.387,-8.789
1701220180.475,46.387,-38.086,25.391,36.133,53.223
1701220180.479,41.992,-32.715,22.461,11.230,75.195
1701220180.483,11.230,-29.785,20.996,-2.930,51.270
1701220180.487,22.461,-27.832,21.484,-10.254,20.020
1701220180.490,4.395,-31.250,30.273,67.383,27.832
1701220180.494,11.719,-32.715,27.832,45.410,51.270
1701220180.498,23.438,-28.320,22.461,0.977,45.410
1701220180.502,13.672,-22.949,22.461,4.395,27.832
1701220180.506,13.672,-25.391,18.066,-1.953,53.223
1701220180.568,25.879,-31.738,24.414,16.113,24.902
1701220180.572,48.828,-29.785,28.809,25.391,-32.227
1701220180.576,23.438,-24.902,23.926,46.387,17.578
1701220180.580,-3.418,-20.996,22.949,81.055,48.828
1701220180.584,4.395,-14.648,25.391,42.969,40.039
1701220180.588,7.812,-14.648,24.902,8.301,53.223
1701220180.592,-0.488,-12.695,23.926,19.043,58.105
1701220180.595,-4.883,-10.254,26.855,18.555,45.898
1701220180.599,39.062,-9.766,26.367,41.504,29.785
1701220180.603,77.148,-8.789,27.344,66.895,43.457
1701220180.607,15.137,-12.207,28.320,-9.766,5.859
1701220180.611,-9.766,-8.301,27.344,-39.062,-8.301
1701220180.571,22.949,-2.441,23.438,-6.836,16.113
1701220180.575,26.855,0.488,22.949,-5.371,6.836
1701220180.579,5.371,-3.906,24.414,-7.324,-28.320
1701220180.583,5.859,-3.906,24.902,19.531,-31.250
1701220180.587,14.648,1.953,27.832,67.871,31.250
1701220180.591,30.273,-0.488,25.391,41.992,67.871
1701220180.595,19.531,-1.953,24.414,-6.348,34.180
1701220180.598,27.832,3.418,19.531,-12.695,-4.395
1701220180.602,18.555,4.883,16.113,-16.602,3.906
1701220180.606,15.137,2.441,22.461,11.719,37.109
