timestamps,TP9,AF7,AF8,TP10,Right AUX
1709252668.031,17.578,-464.355,-393.555,-46.387,-22.949
1709252668.035,19.531,-431.152,-440.918,18.555,-48.828
1709252668.039,24.902,-120.605,-102.539,38.574,-4.395
1709252668.043,20.020,-69.824,-37.109,-8.789,27.344
1709252668.047,12.695,-360.840,-474.121,-26.855,-6.348
1709252668.051,23.438,-453.613,-694.824,32.715,1.953
1709252668.055,40.039,-311.523,-491.699,65.918,37.109
1709252668.058,22.949,-140.137,-240.723,29.785,65.430
1709252668.062,7.812,-539.551,-588.379,7.812,32.227
1709252668.066,3.418,-797.852,-964.355,26.855,-20.020
1709252668.070,3.906,-53.711,-192.871,82.031,41.504
1709252668.074,12.695,274.902,480.957,91.797,78.613
1709252668.076,5.371,0.977,228.027,44.434,52.246
1709252668.080,-2.930,6.348,127.930,9.277,36.621
1709252668.084,4.395,363.770,645.996,41.016,73.242
1709252668.088,11.230,430.176,-999.512,63.965,97.168
1709252668.092,1.465,56.641,699.707,12.695,47.852
1709252668.096,21.973,-203.125,324.707,9.277,2.930
1709252668.100,46.387,-155.762,347.168,70.312,9.766
1709252668.103,14.160,-115.234,467.285,86.426,25.391
1709252668.107,-3.418,-418.457,63.965,26.855,-3.418
1709252668.111,12.207,-368.652,-79.590,-12.695,-21.484
1709252668.115,34.668,14.648,443.359,43.457,42.480
1709252668.119,44.434,179.688,875.000,97.656,87.891
1709252668.123,29.785,-53.711,656.738,64.941,39.062
1709252668.127,26.855,-259.766,221.191,20.508,-2.930
1709252668.131,31.738,-174.805,170.410,33.203,32.715
1709252668.135,27.344,-220.703,99.121,98.633,57.129
1709252668.139,28.320,-190.430,98.145,85.938,73.730
1709252668.143,22.949,-276.367,-45.410,28.809,63.477
1709252668.147,23.438,-610.840,-555.176,37.109,1.465
1709252668.150,32.227,-802.734,-828.613,90.820,22.949
1709252668.154,37.109,-763.184,-773.438,103.516,35.156
1709252668.158,15.137,-479.492,-425.293,40.039,20.020
1709252668.162,-9.277,-445.801,-270.020,16.113,53.223
1709252668.166,9.766,-392.090,-145.020,56.152,56.641
1709252668.166,26.367,-94.238,260.254,58.594,70.801
1709252668.170,21.973,-13.184,490.234,16.602,61.523
1709252668.174,10.742,-390.625,145.996,-35.156,11.719
1709252668.178,11.719,-714.844,-285.645,-25.879,-5.859
1709252668.182,34.180,-460.938,-8.301,41.504,34.180
1709252668.186,32.715,-445.801,178.223,26.855,54.199
1709252668.190,12.207,-807.617,-327.637,-36.133,22.461
1709252668.193,7.812,-1000.000,-934.570,-40.527,-22.949
1709252668.197,25.391,-737.305,-635.254,8.301,16.113
1709252668.201,27.832,-296.387,165.527,12.207,61.523
1709252668.205,18.555,-429.199,139.648,-32.715,41.504
1709252668.209,17.578,-605.957,-121.582,-51.758,23.926
1709252668.211,17.090,-369.629,151.855,-1.953,53.223
1709252668.215,26.855,-164.551,541.016,21.484,83.008
1709252668.219,20.020,-416.504,314.453,-18.555,54.199
1709252668.223,7.812,-657.715,-88.379,-31.250,53.711
1709252668.227,8.789,-573.242,-47.852,11.719,54.199
1709252668.231,11.719,-702.148,-94.727,24.902,36.133
1709252668.235,10.254,-945.312,-652.832,-11.230,-14.160
1709252668.238,10.742,-986.328,-993.652,-27.832,-42.969
1709252668.242,15.137,-917.969,-699.219,-15.137,-7.324
1709252668.246,20.020,-734.863,-237.793,5.371,43.457
1709252668.250,21.973,-738.770,-100.586,-6.348,50.781
1709252668.254,16.113,-814.941,-161.621,-42.969,43.945
1709252668.257,12.207,-836.914,-194.824,-27.344,27.832
1709252668.261,10.254,-802.734,-142.090,55.176,35.645
1709252668.265,18.066,-741.699,-108.887,45.898,66.406
1709252668.269,13.672,-794.434,-329.102,-19.043,45.898
1709252668.273,5.859,-955.078,-653.320,-30.762,10.742
1709252668.277,20.996,-975.098,-843.750,14.648,27.344
1709252668.281,24.902,-971.191,-963.867,28.320,36.133
1709252668.284,2.441,-910.156,-853.027,-23.926,42.480
1709252668.288,-9.766,-882.812,-751.953,-19.043,39.551
1709252668.292,45.410,-986.328,-929.199,69.336,14.648
1709252668.296,75.195,-813.965,-654.297,103.516,69.336
1709252668.300,18.066,-690.918,-178.223,10.742,91.797
1709252668.316,-48.828,-900.391,-198.730,-80.566,21.973
1709252668.320,-80.566,-1000.000,-172.363,-57.617,20.508
1709252668.324,-70.312,-823.730,260.742,-13.672,71.289
1709252668.328,-101.074,-687.988,683.105,-64.941,70.801
1709252668.332,-146.484,-865.234,631.836,-148.926,39.551
1709252668.336,-157.715,-987.305,294.922,-184.570,23.438
1709252668.340,-174.316,-937.500,311.523,-166.504,16.113
1709252668.343,-199.219,-833.496,704.102,-186.035,19.043
1709252668.347,-223.145,-903.320,585.449,-244.141,-20.508
1709252668.351,-245.117,-1000.000,29.297,-265.625,-59.082
1709252668.355,-259.277,-889.648,123.047,-232.910,-27.832
1709252668.359,-262.207,-766.113,616.211,-255.859,19.531
1709252668.361,-274.414,-898.926,440.430,-324.707,1.953
1709252668.365,-304.688,-987.793,0.000,-351.074,-37.598
1709252668.369,-308.105,-928.223,34.668,-313.477,-29.785
1709252668.373,-276.367,-669.922,476.074,-265.625,37.598
1709252668.377,-290.039,-725.098,448.242,-302.246,43.945
1709252668.381,-319.824,-984.375,-89.844,-356.934,20.996
1709252668.385,-305.176,-971.191,-322.266,-332.031,4.395
1709252668.388,-293.945,-964.844,15.137,-282.715,-4.883
1709252668.392,-299.805,-972.656,163.086,-281.738,2.441
1709252668.396,-283.691,-971.191,-220.215,-312.500,-41.016
1709252668.400,-255.371,-971.191,43.457,-304.199,-15.625
1709252668.404,-224.609,-971.191,680.176,-238.770,42.969
1709252668.406,-219.238,-971.191,869.141,-205.078,48.340
1709252668.410,-220.215,-971.191,797.363,-216.797,38.574
1709252668.414,-187.500,-971.191,606.934,-233.398,18.066
1709252668.418,-146.484,-971.191,626.953,-170.410,27.344
1709252668.422,-132.324,-971.191,602.539,-120.117,32.715
1709252668.426,-137.695,-971.191,244.141,-155.762,21.973
1709252668.430,-118.652,-971.191,-180.176,-177.734,-17.090
1709252668.433,-75.195,-971.191,-209.961,-135.254,31.738
1709252668.437,-44.922,-971.191,-344.727,-56.152,49.316
1709252668.441,-43.457,-971.191,-572.266,-34.180,44.922
1709252668.445,-45.410,-971.191,-481.445,-29.785,70.312
1709252668.449,-23.926,-971.191,-627.441,-22.461,72.754
1709252668.452,11.719,-971.191,-616.699,0.000,103.516
1709252668.456,47.363,-971.191,-503.418,7.324,106.445
1709252668.460,32.227,-971.191,-647.949,-10.254,65.918
1709252668.464,17.090,-971.191,-902.832,-3.906,39.062
1709252668.468,51.758,-971.191,-795.898,35.156,70.312
1709252668.472,81.055,-971.191,-667.969,76.172,84.473
1709252668.476,85.449,-971.191,-884.277,70.312,42.969
1709252668.479,74.707,-971.191,-971.191,74.219,6.348
1709252668.483,77.148,-971.191,-993.652,96.191,40.039
1709252668.487,84.961,-971.191,-801.270,101.562,74.707
1709252668.491,73.730,-960.449,-571.289,74.219,65.430
1709252668.495,62.012,-983.398,-845.215,41.504,14.648
1709252668.496,63.477,-906.738,-830.078,53.711,52.734
1709252668.500,77.637,-606.934,-265.137,91.797,124.512
1709252668.504,93.262,-515.625,-42.480,83.984,80.078
1709252668.508,74.707,-808.594,-441.895,45.410,21.973
1709252668.512,70.801,-836.426,-602.539,53.711,35.156
1709252668.516,84.961,-666.504,-367.188,91.309,69.336
1709252668.520,88.867,-562.988,-86.426,62.500,98.633
1709252668.523,84.473,-725.586,-339.355,14.648,50.293
1709252668.527,68.848,-1000.000,-804.688,9.766,-23.926
1709252668.531,87.891,-765.625,-229.004,50.781,16.113
1709252668.535,112.793,-370.117,642.090,59.082,42.969
1709252668.539,105.957,-515.625,885.742,15.137,16.113
1709252668.556,81.543,-581.055,940.430,-17.090,6.836
1709252668.560,90.820,-434.082,-988.281,-4.395,0.488
1709252668.564,124.023,-493.652,993.164,-3.418,4.883
1709252668.568,127.930,-664.062,-999.023,-44.922,0.977
1709252668.572,106.934,-752.930,999.512,-73.730,-15.625
1709252668.576,106.934,-910.156,999.512,-35.156,-30.762
1709252668.580,114.746,-960.449,999.512,32.715,-31.738
1709252668.583,111.328,-945.801,999.512,3.906,-60.059
1709252668.587,91.309,-896.973,999.512,-51.758,-86.914
1709252668.591,57.617,-749.023,999.512,-78.125,-80.078
1709252668.595,43.945,-652.344,999.023,-53.223,-62.500
1709252668.599,26.855,-611.816,993.164,-42.969,-43.457
1709252668.588,6.836,-521.973,997.070,-46.387,-42.969
1709252668.592,-17.090,-460.449,930.176,-27.344,-58.105
1709252668.596,-25.879,-533.203,539.551,26.855,-23.438
1709252668.600,-23.438,-520.020,229.004,44.434,-30.273
1709252668.604,-15.625,-520.996,12.695,14.648,-54.688
1709252668.608,-37.109,-851.562,-637.207,-2.930,-23.438
1709252668.612,-38.086,-1000.000,-1000.000,46.875,-46.875
1709252668.615,-0.488,-872.070,-908.691,129.395,-69.336
1709252668.619,-5.371,-757.324,-872.559,128.906,10.742
1709252668.623,-30.273,-877.930,-955.078,103.027,-11.719
1709252668.627,-36.133,-1000.000,-977.539,136.719,-41.992
1709252668.631,-13.184,-861.328,-967.285,193.359,45.898
1709252668.631,12.695,-768.066,-971.680,190.430,43.457
1709252668.635,8.301,-914.062,-971.191,154.785,32.715
1709252668.639,17.090,-982.422,-971.191,196.777,20.996
1709252668.643,8.301,-957.031,-971.191,260.254,41.504
1709252668.647,-15.625,-961.426,-971.191,228.027,85.449
1709252668.651,0.000,-973.145,-971.191,192.383,41.504
1709252668.655,12.207,-970.703,-971.191,197.266,-14.160
1709252668.658,27.344,-971.191,-971.191,229.980,15.137
1709252668.662,63.477,-971.191,-971.191,279.297,42.969
1709252668.666,58.594,-971.191,-971.680,212.891,10.254
1709252668.670,38.574,-971.191,-965.332,149.414,2.930
1709252668.674,48.828,-971.191,-982.910,180.176,8.789
1709252668.692,66.895,-971.191,-910.645,209.473,47.363
1709252668.696,66.406,-971.191,-794.434,176.270,61.035
1709252668.700,52.734,-971.191,-707.520,129.395,33.691
1709252668.704,49.316,-971.191,-353.027,124.512,44.922
1709252668.708,66.406,-971.191,181.641,134.277,47.852
1709252668.712,76.172,-970.703,394.043,124.023,23.438
1709252668.716,66.406,-967.773,375.977,96.680,6.836
1709252668.719,56.641,-986.328,514.160,71.289,-27.832
1709252668.723,70.312,-888.672,899.902,99.121,21.484
1709252668.727,76.172,-884.766,925.293,104.492,51.270
1709252668.731,68.848,-970.703,739.746,59.570,19.531
1709252668.735,66.895,-956.055,721.680,34.668,-18.066
1709252668.736,64.453,-787.109,847.168,51.270,6.348
1709252668.740,80.078,-484.863,-986.816,85.449,60.059
1709252668.744,75.195,-356.934,994.141,66.895,59.570
1709252668.748,67.383,-361.328,997.070,51.758,73.242
1709252668.752,87.402,-402.832,-1000.000,113.770,98.145
1709252668.756,105.469,-474.609,999.512,165.039,105.469
1709252668.760,93.262,-542.480,999.512,148.438,85.938
1709252668.763,66.895,-556.152,999.512,90.332,65.430
1709252668.767,71.777,-752.930,999.512,86.914,32.227
1709252668.771,83.984,-989.746,999.512,149.414,54.688
1709252668.775,72.754,-690.430,999.512,134.277,89.844
1709252668.779,71.289,-506.348,999.512,61.035,65.918
1709252668.781,75.195,-699.219,999.512,9.766,64.453
1709252668.785,82.031,-630.371,999.512,42.969,93.262
1709252668.789,77.637,-506.348,999.512,77.148,87.402
1709252668.793,58.594,-667.969,999.512,34.180,66.895
1709252668.797,50.293,-893.555,999.512,-11.230,62.012
1709252668.801,68.848,-978.027,999.512,22.461,57.129
1709252668.805,90.332,-924.316,999.512,68.848,79.102
1709252668.808,91.797,-875.000,999.512,41.992,98.633
1709252668.812,67.383,-956.543,999.512,18.555,38.574
1709252668.816,62.988,-961.914,999.512,56.152,24.414
1709252668.820,64.453,-673.340,999.512,119.141,108.398
1709252668.824,71.289,-683.105,999.512,107.422,123.047
1709252668.826,91.797,-968.262,-1000.000,65.918,60.547
1709252668.830,71.777,-833.984,998.047,41.992,71.777
1709252668.834,27.832,-495.117,995.605,49.316,125.000
1709252668.838,21.484,-540.527,998.047,41.504,128.418
1709252668.842,12.207,-899.414,941.895,-14.648,98.145
1709252668.846,-12.695,-985.840,692.871,-33.691,41.992
1709252668.850,-18.066,-938.965,719.727,10.254,61.523
1709252668.853,-15.137,-939.453,835.938,33.691,76.660
1709252668.857,-17.578,-961.426,498.535,-10.742,38.086
1709252668.861,-19.043,-988.770,417.480,-41.992,24.902
1709252668.865,-6.836,-885.254,652.832,-13.672,34.668
1709252668.869,-1.953,-618.652,956.543,16.602,106.934
1709252668.871,-4.883,-572.266,945.312,-40.039,81.543
1709252668.875,0.000,-737.793,547.852,-95.215,9.766
1709252668.879,0.488,-938.477,50.293,-48.340,1.465
1709252668.883,14.648,-950.195,-218.262,38.574,41.992
1709252668.887,18.066,-650.879,-26.367,42.480,94.238
1709252668.891,-3.418,-648.438,-132.812,15.625,81.055
1709252668.895,-3.418,-806.152,-557.129,31.738,72.266
1709252668.898,10.742,-930.664,-862.305,61.523,29.785
1709252668.902,7.324,-801.270,-876.953,49.805,18.555
1709252668.906,-6.348,-392.090,-507.812,2.930,54.688
1709252668.910,-15.137,-426.758,-515.137,5.371,23.438
1709252668.914,7.812,-319.824,-427.246,62.988,71.289
1709252668.916,35.156,92.773,99.121,87.402,117.676
1709252668.920,36.621,203.613,293.945,47.363,87.891
1709252668.924,18.066,-104.492,-140.625,12.695,44.434
1709252668.928,7.324,-304.199,-601.562,46.387,24.414
1709252668.932,17.578,-56.152,-409.180,91.797,59.082
1709252668.936,22.949,-96.191,-481.445,45.898,56.641
1709252668.940,1.953,-500.488,-897.461,-36.621,25.879
1709252668.943,-13.184,-927.734,-996.094,-39.062,-14.160
1709252668.947,4.883,-580.078,-895.508,30.273,11.719
1709252668.951,10.254,62.012,-487.305,58.105,81.055
1709252668.955,4.395,-66.406,-450.195,11.719,58.105
1709252668.959,2.930,-280.762,-705.078,9.766,17.090
1709252668.961,18.066,-87.891,-446.289,63.965,40.039
1709252668.965,38.574,113.770,-49.316,60.059,59.082
1709252668.969,27.344,-59.082,-187.012,10.742,43.457
1709252668.973,15.137,-300.781,-612.305,2.441,13.184
1709252668.977,20.508,-241.211,-665.527,55.176,10.254
1709252668.981,42.969,-115.234,-590.820,87.891,66.406
1709252668.985,41.504,-496.582,-807.129,71.289,54.688
1709252668.988,26.855,-743.164,-983.398,47.852,10.254
1709252668.992,21.973,-449.219,-975.098,82.031,22.949
1709252668.996,22.461,-110.840,-475.098,119.629,75.684
1709252669.000,30.762,-9.766,-80.566,72.266,100.098
1709252669.004,24.902,-47.852,-49.316,44.434,81.543
1709252669.007,26.855,15.137,130.859,62.012,54.199
1709252669.011,49.805,88.867,432.617,102.539,65.430
1709252669.015,56.152,211.914,795.410,103.027,106.445
1709252669.019,40.527,197.754,902.344,60.059,91.309
1709252669.023,30.273,74.219,791.992,23.438,56.152
1709252669.027,45.410,-146.973,582.031,46.387,54.688
1709252669.031,54.199,-461.914,181.641,84.473,55.176
1709252669.034,42.969,-329.590,193.359,41.016,54.199
1709252669.038,24.902,-146.973,444.824,8.789,48.340
1709252669.042,27.344,-118.652,541.504,53.223,56.641
1709252669.046,44.434,46.387,774.902,72.754,93.750
1709252669.050,35.645,85.449,804.199,47.852,85.938
1709252669.066,17.578,84.961,677.246,25.879,63.965
1709252669.070,30.762,-193.359,267.578,44.434,35.156
1709252669.074,62.988,-153.809,194.824,99.609,73.242
1709252669.078,65.430,231.934,650.391,111.328,114.746
1709252669.082,39.062,128.906,589.844,68.848,67.871
1709252669.086,26.855,-446.289,-130.859,57.617,49.805
1709252669.090,38.574,-655.273,-505.859,107.422,72.754
1709252669.093,43.945,-125.488,159.668,129.395,96.191
1709252669.097,52.734,-62.988,544.922,86.914,66.895
1709252669.101,52.734,-417.480,251.953,66.895,28.320
1709252669.105,37.598,-233.398,519.531,114.746,65.430
1709252669.109,40.039,189.941,-965.820,130.371,83.008
1709252669.112,57.617,106.445,997.559,90.332,56.152
1709252669.116,60.547,-263.184,755.859,25.879,33.691
1709252669.120,55.176,-350.098,580.566,6.348,29.297
1709252669.124,65.918,65.430,896.973,34.668,83.984
1709252669.128,63.477,75.684,995.605,31.250,90.820
1709252669.132,23.438,-447.754,429.688,9.277,41.504
1709252669.136,6.348,-537.598,107.422,26.367,55.176
1709252669.139,23.438,-30.273,670.410,61.035,119.141
1709252669.143,29.785,74.707,-993.652,46.387,119.629
1709252669.147,23.438,-521.484,410.645,-8.789,44.922
1709252669.151,33.203,-432.617,375.977,-25.391,66.895
1709252669.155,61.523,-30.762,892.090,36.621,115.234
1709252669.157,58.594,63.965,-994.141,54.688,117.676
1709252669.161,54.199,-82.031,988.770,-12.695,77.148
1709252669.165,50.293,-197.266,-1000.000,-36.133,54.688
1709252669.169,44.434,-139.160,993.652,20.996,74.707
1709252669.173,50.781,-149.414,-995.117,50.293,101.562
1709252669.177,57.129,-420.898,990.234,4.883,78.125
1709252669.181,58.594,-655.762,765.137,-52.246,33.203
1709252669.184,68.848,-408.691,868.652,-41.504,57.129
1709252669.188,79.102,-514.160,816.895,7.324,67.871
1709252669.192,66.895,-855.469,307.617,15.625,50.293
1709252669.196,27.832,-617.188,344.238,-36.621,58.594
1709252669.200,23.438,-557.617,433.594,-65.918,59.570
1709252669.201,46.875,-603.516,363.281,-20.996,42.969
1709252669.205,48.340,-425.781,493.164,-16.113,70.312
1709252669.209,26.367,-471.680,403.320,-63.965,70.312
1709252669.213,8.789,-793.945,-59.570,-64.941,31.738
1709252669.217,-2.930,-846.680,-194.824,-9.766,45.410
1709252669.221,20.020,-837.402,-187.988,16.602,47.363
1709252669.225,59.082,-979.492,-429.199,-14.160,31.250
1709252669.228,27.344,-963.867,-663.574,-82.031,22.461
1709252669.232,-16.602,-982.422,-974.121,-91.797,-8.789
1709252669.236,12.207,-891.602,-764.648,-33.203,2.930
1709252669.240,32.715,-645.508,-246.582,-31.738,41.016
1709252669.244,17.090,-771.973,-353.027,-80.566,13.672
1709252669.246,43.945,-835.449,-524.414,-84.961,4.883
1709252669.250,53.711,-479.492,-121.094,-48.828,51.758
1709252669.254,43.945,-427.734,8.789,-51.758,37.109
1709252669.258,33.203,-783.203,-539.062,-78.125,-9.277
1709252669.262,29.785,-992.188,-977.539,-81.543,-28.320
1709252669.266,60.547,-959.961,-912.598,-50.781,2.930
1709252669.270,92.773,-969.727,-884.277,-35.645,26.367
1709252669.273,95.215,-967.285,-958.984,-71.777,-12.695
1709252669.277,72.754,-982.422,-965.820,-99.609,-47.363
1709252669.281,76.660,-931.152,-617.676,-68.848,17.578
1709252669.285,87.402,-902.832,-231.445,-61.035,43.457
1709252669.289,76.660,-967.285,-623.535,-95.215,-25.879
1709252669.291,51.758,-982.422,-837.891,-119.629,-57.617
1709252669.295,44.922,-947.266,-244.629,-97.656,-20.020
1709252669.299,68.848,-849.609,250.488,-70.312,24.414
1709252669.303,62.012,-895.996,315.430,-105.469,10.254
1709252669.307,56.641,-963.379,86.426,-162.598,-55.664
1709252669.311,56.641,-969.238,-157.715,-137.695,-86.914
1709252669.315,47.852,-971.191,-118.164,-75.195,-46.875
1709252669.318,52.246,-968.750,-124.512,-78.613,-22.461
1709252669.322,47.363,-977.051,-173.340,-113.281,-69.824
1709252669.326,31.738,-931.641,32.227,-100.586,-57.129
1709252669.330,38.574,-911.621,217.285,-54.199,-23.926
1709252669.334,41.504,-785.156,411.133,-30.273,0.488
1709252669.337,32.227,-781.250,473.633,-45.410,0.488
1709252669.341,17.578,-971.191,54.199,-56.152,-66.406
1709252669.345,31.250,-985.352,-270.996,-10.254,-69.824
1709252669.349,44.434,-905.762,34.668,20.020,7.324
1709252669.353,32.227,-887.207,286.621,-4.883,19.531
1709252669.357,21.973,-971.191,-10.742,-52.734,-15.625
1709252669.361,30.273,-973.145,-355.957,-38.574,-3.906
1709252669.364,59.570,-973.145,-297.363,17.578,-11.230
1709252669.368,50.293,-861.328,221.680,-0.977,34.180
1709252669.372,8.789,-868.652,286.133,-50.781,27.832
1709252669.376,11.230,-998.047,6.348,-33.691,-20.996
1709252669.380,29.297,-771.973,375.488,20.020,54.688
1709252669.381,19.043,-553.223,785.156,10.742,77.637
1709252669.385,7.812,-768.555,420.898,-44.922,20.020
1709252669.389,2.930,-1000.000,-129.395,-56.641,-8.301
1709252669.393,20.508,-810.547,-14.648,5.859,38.086
1709252669.397,12.695,-645.508,254.395,9.766,70.312
1709252669.401,-10.254,-875.488,-155.762,-39.062,26.855
1709252669.405,-15.137,-1000.000,-845.215,-62.500,-14.160
1709252669.408,-14.648,-859.863,-829.102,-12.695,-14.160
1709252669.412,4.395,-382.812,-61.035,43.457,61.523
1709252669.416,1.465,-300.293,194.824,19.531,65.430
1709252669.420,-10.254,-518.555,-111.328,-15.625,19.043
1709252669.424,-13.672,-354.980,-18.555,1.953,50.781
1709252669.441,8.301,-8.301,487.305,43.945,107.910
1709252669.445,32.227,15.625,641.602,11.719,118.164
1709252669.449,28.320,-312.988,206.055,-27.832,52.734
1709252669.453,28.320,-415.039,-57.617,-9.766,31.738
1709252669.457,36.133,-174.316,203.613,59.570,88.867
1709252669.461,24.414,-283.691,111.816,66.895,79.102
1709252669.465,15.137,-525.879,-341.309,1.465,55.664
1709252669.468,20.020,-554.199,-561.523,3.418,63.477
1709252669.472,17.090,-292.480,-271.484,66.895,105.469
1709252669.476,30.273,-402.832,-260.254,67.383,106.445
1709252669.480,19.043,-759.766,-803.711,14.160,57.617
1709252669.484,-2.441,-455.078,-645.996,-25.391,71.777
1709252669.486,15.625,-303.223,-335.449,16.113,87.891
1709252669.490,35.156,-216.797,-68.359,79.590,102.051
1709252669.494,20.508,-54.688,282.227,43.945,123.535
1709252669.498,0.000,-191.406,260.742,-4.395,79.102
1709252669.502,21.484,-407.227,70.312,14.648,53.711
1709252669.506,46.875,-423.828,112.305,45.898,86.426
1709252669.510,44.922,-417.480,159.668,18.555,79.590
1709252669.513,18.555,-361.816,224.121,-26.367,63.477
1709252669.517,18.066,-418.457,261.230,-20.020,76.172
1709252669.521,45.898,-557.129,162.109,29.297,98.633
1709252669.525,34.668,-303.711,436.523,40.527,118.164
1709252669.529,14.160,-105.469,776.855,8.301,109.863
1709252669.531,15.137,-447.754,420.898,-8.301,55.176
1709252669.535,32.715,-478.027,386.719,24.902,85.449
1709252669.539,55.664,-91.797,956.543,21.973,122.559
1709252669.543,53.223,-147.461,-958.984,-32.715,96.191
1709252669.547,43.945,-415.039,856.445,-46.875,76.172
1709252669.551,48.340,-554.688,670.898,-6.836,79.590
1709252669.555,59.570,-395.020,847.168,32.715,122.070
1709252669.558,62.012,-322.266,-949.707,-21.973,106.445
1709252669.562,46.387,-726.074,490.723,-72.266,35.156
1709252669.566,56.641,-881.348,105.469,-31.738,19.043
1709252669.570,65.918,-411.621,749.023,25.879,62.500
1709252669.574,56.641,-284.180,-957.520,20.020,76.660
1709252669.577,37.598,-490.234,879.395,-46.387,52.734
1709252669.581,38.574,-714.844,568.359,-86.914,16.113
1709252669.585,59.570,-477.051,723.633,-21.973,64.453
1709252669.589,63.965,-349.121,-1000.000,19.531,75.684
1709252669.593,49.805,-764.648,638.672,-25.879,19.531
1709252669.597,24.902,-947.266,230.469,-36.621,7.812
1709252669.601,36.133,-931.152,188.965,9.766,4.395
1709252669.604,66.895,-840.820,489.746,6.348,36.621
1709252669.608,46.875,-943.359,316.406,-63.965,5.859
1709252669.612,26.855,-996.094,155.762,-118.652,-44.922
1709252669.616,33.203,-920.410,518.066,-99.121,-17.090
1709252669.620,48.828,-878.418,845.703,-34.180,14.160
1709252669.623,54.688,-905.762,971.191,-10.254,1.465
1709252669.627,29.785,-937.012,937.012,-69.824,-31.250
1709252669.631,32.227,-985.352,883.301,-101.074,-59.082
1709252669.635,60.547,-927.246,978.027,-55.176,-10.742
1709252669.639,47.363,-880.859,-985.352,-41.992,18.066
1709252669.643,19.043,-951.172,919.434,-71.289,2.441
1709252669.647,12.207,-970.215,665.039,-83.984,-23.438
1709252669.650,18.066,-974.121,321.289,-43.945,-57.129
1709252669.654,14.160,-941.895,95.215,-29.785,-58.105
1709252669.658,-20.508,-758.789,213.379,-81.543,-45.410
1709252669.662,-19.043,-671.387,161.133,-103.027,-43.945
1709252669.666,14.648,-610.352,0.000,-54.199,-31.738
1709252669.666,15.137,-286.621,198.242,-5.371,13.184
1709252669.670,2.441,-167.480,233.887,-36.621,24.414
1709252669.674,-19.043,-534.180,-375.977,-65.918,-24.414
1709252669.678,-19.531,-757.324,-938.965,-19.531,-34.180
1709252669.682,4.395,-473.145,-781.250,63.477,15.137
1709252669.686,7.324,-542.480,-786.621,101.074,21.484
1709252669.690,-3.418,-874.023,-979.980,52.246,-13.184
1709252669.693,-1.953,-1000.000,-995.605,23.926,-41.504
1709252669.697,14.160,-711.914,-820.312,93.262,26.367
1709252669.701,17.090,-266.602,-285.645,109.863,84.961
1709252669.705,2.930,-468.750,-306.641,45.410,42.969
1709252669.709,-9.766,-720.703,-612.305,10.254,25.391
1709252669.711,5.371,-445.801,-242.676,61.035,76.172
1709252669.715,28.809,-167.969,324.707,105.957,99.609
1709252669.719,17.090,-392.090,216.309,64.941,49.316
1709252669.723,1.953,-594.238,-65.918,38.574,33.691
1709252669.727,4.395,-413.086,124.023,55.664,56.152
1709252669.731,12.695,-213.379,418.945,88.867,86.426
1709252669.735,15.137,-540.039,-0.488,67.871,61.035
1709252669.738,7.812,-854.492,-729.492,0.000,-4.883
1709252669.742,4.883,-458.008,-585.449,0.488,16.113
1709252669.746,20.508,-0.977,68.359,47.363,85.938
1709252669.750,29.297,-66.895,159.668,38.086,58.594
1709252669.754,17.090,-206.543,-60.059,-26.855,21.973
1709252669.757,16.602,-68.848,26.855,-24.902,29.785
1709252669.761,35.156,61.523,246.582,42.480,48.828
1709252669.765,35.156,11.230,198.242,41.504,58.594
1709252669.769,18.066,24.414,89.844,-13.672,59.082
1709252669.773,19.043,-63.477,-65.918,-35.156,15.625
1709252669.777,41.016,-208.008,-172.852,4.395,52.734
1709252669.781,54.199,-423.828,-352.539,29.297,93.750
1709252669.784,63.965,-351.074,-286.133,5.859,79.590
1709252669.788,44.922,-219.238,-19.043,-20.020,58.594
1709252669.792,31.738,-311.035,6.348,8.789,48.828
1709252669.796,42.480,-169.434,272.949,47.852,75.195
1709252669.800,49.805,59.570,659.668,21.973,117.188
1709252669.816,56.641,-109.863,564.941,-44.922,84.473
1709252669.820,26.855,-666.992,-114.746,-20.996,21.484
1709252669.824,26.367,-660.645,-172.852,53.223,74.219
1709252669.828,36.133,-299.805,407.715,31.250,125.000
1709252669.832,24.902,-437.500,470.215,-27.344,101.074
1709252669.836,38.086,-867.676,-17.578,-68.359,48.828
1709252669.840,65.918,-872.070,3.418,-29.297,92.285
1709252669.843,77.637,-546.387,697.754,-2.441,120.605
1709252669.847,57.617,-728.516,836.426,-50.293,41.992
1709252669.851,54.688,-999.512,252.930,-77.637,-20.996
1709252669.855,66.406,-900.391,330.078,-45.410,20.508
1709252669.859,58.594,-589.844,997.070,5.859,113.281
1709252669.861,42.480,-667.969,984.863,-15.137,73.242
1709252669.865,37.598,-990.723,661.133,-54.688,8.301
1709252669.869,42.969,-926.758,654.785,-27.344,39.551
1709252669.873,48.828,-692.871,985.352,14.160,85.938
1709252669.877,38.086,-809.082,882.812,11.230,64.941
1709252669.881,20.508,-977.051,347.656,-21.973,16.602
1709252669.885,7.324,-999.512,117.188,-13.184,6.836
1709252669.888,24.902,-651.367,589.844,37.598,69.824
1709252669.892,40.039,-498.047,846.680,20.508,82.031
1709252669.896,22.461,-933.594,184.082,-28.809,33.203
1709252669.900,24.414,-860.840,-63.477,-25.391,37.109
1709252669.904,29.785,-384.277,478.516,32.227,106.934
1709252669.906,28.320,-238.281,731.445,72.754,130.371
1709252669.910,10.254,-356.445,502.441,49.316,113.770
1709252669.914,1.953,-473.145,165.039,46.387,93.262
1709252669.918,20.996,-467.285,5.859,108.887,104.980
1709252669.922,29.785,-356.934,117.188,144.043,155.762
1709252669.926,23.926,-619.629,-235.840,79.102,131.836
1709252669.930,14.160,-940.918,-832.520,34.668,73.242
1709252669.933,24.414,-964.355,-980.469,66.895,83.496
1709252669.937,37.598,-968.262,-961.914,125.488,83.984
1709252669.941,30.273,-914.551,-947.754,109.863,79.590
1709252669.945,5.859,-768.555,-879.883,46.875,91.309
1709252669.949,-1.953,-792.969,-928.223,36.133,67.871
1709252669.952,21.973,-680.176,-829.102,65.430,95.703
1709252669.956,36.621,-419.922,-541.016,68.848,118.164
1709252669.960,1.953,-478.027,-665.039,36.133,85.449
1709252669.964,-14.160,-751.953,-969.238,36.621,46.387
1709252669.968,16.602,-722.168,-926.758,85.449,57.129
1709252669.972,40.527,-513.184,-792.480,99.609,101.074
1709252669.976,33.203,-613.770,-872.559,41.016,78.125
1709252669.979,10.742,-861.328,-977.051,4.883,29.785
1709252669.983,9.277,-908.203,-958.984,49.805,9.277
1709252669.987,49.805,-518.066,-525.391,110.352,40.039
1709252669.991,40.039,-257.324,68.848,74.219,51.270
1709252669.995,-8.789,-567.871,-59.570,-30.273,-5.371
1709252669.996,-16.113,-670.898,-162.109,-41.992,-7.324
1709252670.000,11.230,-190.918,533.691,36.133,63.477
1709252670.004,49.805,-50.293,943.848,49.316,69.336
1709252670.008,35.645,-381.836,541.992,-24.902,31.738
1709252670.012,22.949,-634.277,58.105,-36.133,3.418
1709252670.016,44.434,-677.734,-125.488,35.156,6.836
1709252670.020,53.711,-583.496,-36.133,52.246,42.969
1709252670.023,40.527,-742.188,-367.676,22.461,12.695
1709252670.027,25.879,-947.754,-827.148,-9.277,-19.043
1709252670.031,21.973,-542.969,-214.355,8.789,49.805
1709252670.035,24.902,-264.648,395.996,47.363,70.312
1709252670.039,12.695,-508.301,226.562,-17.090,9.766
1709252670.042,12.695,-824.219,-241.211,-80.566,-20.020
1709252670.046,29.297,-957.031,-559.082,-47.852,-36.621
1709252670.050,50.781,-857.422,-402.832,16.113,-16.113
1709252670.054,46.387,-923.340,-413.086,0.488,-11.230
1709252670.058,30.273,-988.281,-637.207,-67.871,-54.688
1709252670.062,25.879,-963.867,-671.875,-78.613,-71.777
1709252670.066,31.250,-973.145,-535.645,-37.109,-42.480
1709252670.069,39.062,-969.727,-454.102,-42.480,-41.016
1709252670.073,34.668,-971.680,-232.422,-87.402,-47.363
1709252670.077,29.785,-960.449,114.258,-101.562,-57.129
1709252670.081,56.641,-968.750,246.582,-33.691,-54.199
1709252670.085,76.172,-892.578,412.598,8.301,-24.902
1709252670.087,57.617,-866.211,466.309,-44.434,-49.805
1709252670.091,39.062,-984.375,153.809,-83.496,-99.121
1709252670.095,31.250,-955.078,33.691,-48.828,-60.059
1709252670.099,42.969,-901.855,49.316,-3.906,-12.695
1709252670.103,41.016,-958.984,-298.340,-25.391,-30.273
1709252670.107,17.578,-974.121,-830.566,-47.363,-55.664
1709252670.111,26.367,-975.098,-982.422,-3.906,-62.500
1709252670.114,44.922,-951.172,-957.520,45.898,-24.414
1709252670.118,37.109,-899.902,-971.680,13.672,16.113
1709252670.122,32.715,-950.195,-971.680,-20.508,-17.090
1709252670.126,41.992,-989.258,-971.191,15.625,-32.227
1709252670.130,37.109,-921.875,-971.191,66.895,1.465
1709252670.131,32.227,-892.090,-971.191,62.012,40.527
1709252670.135,43.457,-968.750,-971.191,24.414,23.926
1709252670.139,43.457,-974.121,-971.191,4.395,-33.691
1709252670.143,46.387,-968.262,-971.191,45.410,-13.184
1709252670.147,58.594,-971.680,-971.191,76.660,50.781
1709252670.151,52.246,-971.191,-971.191,18.066,41.016
1709252670.155,32.715,-971.191,-971.191,-24.414,0.977
1709252670.158,37.598,-971.191,-971.191,25.879,4.883
1709252670.162,48.828,-971.191,-971.191,73.242,61.035
1709252670.166,44.434,-971.191,-971.191,61.035,63.965
1709252670.170,24.902,-971.191,-971.191,21.973,25.391
1709252670.174,26.367,-971.191,-971.191,15.137,30.762
1709252670.191,45.898,-971.191,-971.191,34.668,60.059
1709252670.195,50.781,-971.191,-971.191,-4.395,70.801
1709252670.199,35.156,-971.191,-971.191,-25.879,59.570
1709252670.203,39.062,-971.191,-971.191,-2.441,56.641
1709252670.207,58.594,-970.703,-971.191,57.617,98.145
1709252670.211,59.082,-969.727,-971.191,84.961,102.539
1709252670.215,45.898,-969.727,-971.191,27.344,46.875
1709252670.218,40.527,-980.957,-971.191,19.043,29.297
1709252670.222,41.016,-910.645,-971.191,59.082,108.887
1709252670.226,47.363,-916.016,-971.191,53.711,102.539
1709252670.230,46.387,-983.398,-971.191,-7.812,58.594
1709252670.234,26.855,-960.938,-971.191,-33.203,72.266
1709252670.236,33.203,-958.496,-971.191,14.648,63.965
1709252670.240,41.016,-860.352,-971.191,48.340,75.684
1709252670.244,35.156,-691.406,-971.191,20.996,105.469
1709252670.248,26.855,-745.605,-971.191,-24.414,77.637
1709252670.252,30.273,-833.984,-971.191,-20.508,75.195
1709252670.256,36.133,-845.703,-971.191,35.156,104.492
1709252670.260,24.414,-900.879,-972.168,16.113,79.102
1709252670.263,23.926,-942.383,-968.750,-52.734,50.781
1709252670.267,30.762,-958.008,-960.449,-54.688,23.926
1709252670.271,45.410,-967.285,-994.141,-4.883,19.531
1709252670.275,43.945,-731.445,-766.602,9.277,74.219
1709252670.279,10.254,-592.285,-426.270,-43.457,108.887
1709252670.281,3.418,-876.465,-670.898,-62.012,68.359
1709252670.285,16.602,-892.090,-650.391,4.883,56.152
1709252670.289,32.715,-555.176,-29.785,59.570,87.891
1709252670.293,27.344,-519.043,212.891,41.992,66.895
1709252670.297,14.648,-843.750,-214.355,5.371,2.930
1709252670.301,38.574,-981.934,-513.184,41.016,14.648
1709252670.305,56.641,-774.902,-208.008,116.211,74.219
1709252670.308,40.527,-568.359,166.016,74.707,88.867
1709252670.312,18.555,-796.875,-239.258,15.137,21.484
1709252670.316,40.039,-893.066,-600.586,43.945,11.230
1709252670.320,71.777,-285.156,308.105,66.895,114.746
1709252670.324,66.406,-30.273,884.766,52.246,110.840
1709252670.326,44.434,-273.438,625.000,23.926,67.871
1709252670.330,37.109,-345.215,411.133,29.785,57.129
1709252670.334,35.645,-43.457,738.770,65.918,100.586
1709252670.338,43.945,-41.016,886.230,66.895,104.004
1709252670.342,39.551,-398.438,443.359,33.691,52.734
1709252670.346,27.832,-555.176,36.621,-0.977,20.996
1709252670.350,27.344,-475.586,-7.812,24.414,31.738
1709252670.353,25.391,-294.434,304.199,49.316,76.660
1709252670.357,29.297,-556.152,51.270,18.555,40.039
1709252670.361,26.367,-470.703,-11.719,11.719,35.156
1709252670.365,24.902,-78.125,494.629,21.484,62.988
1709252670.369,29.785,95.215,828.613,60.059,80.078
1709252670.371,20.020,104.980,851.074,46.387,66.895
1709252670.375,2.930,-24.414,574.219,-12.207,38.086
1709252670.379,4.883,-137.207,296.875,16.602,31.250
1709252670.383,27.832,-90.332,279.297,66.406,59.082
1709252670.387,21.973,0.488,387.695,46.387,77.148
1709252670.391,4.883,-221.191,125.000,1.953,50.293
1709252670.395,12.207,-515.625,-358.887,-23.438,29.785
1709252670.398,22.949,-724.609,-668.945,17.090,37.598
1709252670.402,24.902,-801.758,-834.961,61.035,40.527
1709252670.406,9.766,-375.488,-433.594,18.066,66.895
1709252670.410,4.883,-224.609,-136.230,-24.902,65.918
1709252670.414,20.020,-295.898,-165.039,11.719,50.781
1709252670.416,34.668,86.426,367.188,60.547,119.629
1709252670.420,28.320,215.820,710.938,22.461,105.469
1709252670.424,4.395,-157.227,312.012,-15.625,39.551
1709252670.428,22.949,-289.551,42.969,19.531,58.105
1709252670.432,55.176,-34.180,299.805,62.988,75.684
1709252670.436,49.805,-117.188,252.441,51.270,39.551
1709252670.440,30.273,-558.105,-335.938,-19.043,23.438
1709252670.443,34.668,-944.336,-945.801,-41.504,-3.906
1709252670.447,50.781,-607.422,-638.184,25.879,37.598
1709252670.451,56.641,-207.031,39.551,47.852,82.520
1709252670.455,41.504,-567.383,-184.082,-14.160,12.207
1709252670.459,26.367,-787.109,-519.531,-41.992,-0.488
1709252670.461,30.273,-395.508,-75.195,0.488,55.176
1709252670.465,30.762,-121.582,451.172,20.020,73.242
1709252670.469,13.184,-297.852,331.055,-28.320,56.152
1709252670.473,1.953,-557.617,-73.730,-69.336,28.809
1709252670.477,20.996,-478.516,-45.410,-24.902,46.875
1709252670.481,31.250,-466.309,118.652,34.180,64.941
1709252670.485,36.133,-773.438,-269.043,11.230,44.922
1709252670.488,36.133,-978.516,-709.961,-38.086,11.230
1709252670.492,29.297,-713.867,-267.090,-23.926,35.645
1709252670.496,48.340,-317.383,512.207,13.672,88.867
1709252670.500,60.547,-282.715,766.113,6.348,67.871
1709252670.504,33.691,-461.914,556.152,-36.621,20.996
1709252670.507,17.090,-695.801,165.527,-72.754,-19.531
1709252670.511,21.973,-673.828,147.461,-36.621,-7.812
1709252670.515,21.484,-639.648,228.516,-24.902,12.207
1709252670.519,17.090,-625.488,192.871,-87.891,5.371
1709252670.523,28.320,-590.820,221.191,-93.262,-14.648
1709252670.527,36.133,-625.488,250.000,-22.949,13.184
1709252670.531,35.645,-703.613,213.867,-2.930,58.105
1709252670.534,27.344,-559.082,303.711,-61.523,33.203
1709252670.538,18.555,-409.668,482.422,-92.773,-3.418
1709252670.542,29.785,-500.000,421.875,-53.223,-10.742
1709252670.546,59.570,-302.734,682.129,8.301,37.109
1709252670.550,73.730,-82.520,-970.703,-10.254,48.340
1709252670.566,49.316,-280.273,885.254,-56.641,1.465
1709252670.570,26.855,-479.492,579.590,-44.434,0.977
1709252670.574,35.645,-448.242,586.914,5.371,18.555
1709252670.578,44.434,-380.859,675.781,25.391,23.438
1709252670.582,35.156,-409.180,631.836,-38.086,14.648
1709252670.586,22.461,-785.156,-18.066,-71.777,-45.898
1709252670.590,31.738,-914.062,-440.918,-9.766,-48.340
1709252670.593,51.270,-535.645,210.938,27.344,4.395
1709252670.597,37.598,-517.578,464.355,-11.719,-18.066
1709252670.601,19.531,-843.750,70.312,-19.531,-47.852
1709252670.605,18.066,-706.055,166.504,34.180,-1.953
1709252670.609,31.738,-262.207,792.480,53.711,57.617
1709252670.611,41.016,-288.086,903.809,7.812,46.387
1709252670.615,20.020,-792.480,216.309,-31.250,-22.461
1709252670.619,18.066,-849.609,-86.914,-7.812,-23.438
1709252670.623,28.809,-449.219,414.062,46.387,29.785
1709252670.627,18.066,-431.641,649.902,17.578,32.715
1709252670.631,1.465,-819.824,205.078,-41.016,-14.648
1709252670.635,7.812,-995.117,-146.973,-50.781,-33.203
1709252670.638,22.461,-717.285,202.637,8.301,27.344
1709252670.642,26.367,-588.379,545.898,50.293,47.363
1709252670.646,22.461,-927.734,-40.039,2.930,-24.902
1709252670.650,9.277,-890.625,-288.574,-40.039,-34.180
1709252670.654,20.508,-464.355,434.082,-5.371,21.484
1709252670.657,34.180,-325.195,813.965,38.574,25.879
1709252670.661,29.785,-385.254,796.875,29.297,18.555
1709252670.665,29.297,-474.609,628.418,-7.324,-6.836
1709252670.669,12.695,-413.086,628.418,1.465,11.230
1709252670.673,18.066,-325.195,768.555,40.039,29.297
1709252670.677,27.832,-530.762,537.109,14.648,7.324
1709252670.681,24.902,-792.969,74.219,-41.504,-3.418
1709252670.684,32.227,-715.332,56.152,-21.973,11.230
1709252670.688,30.762,-756.348,36.621,36.621,5.371
1709252670.692,28.809,-939.941,-270.996,38.574,-10.254
1709252670.696,20.996,-747.070,-70.312,0.488,-14.648
1709252670.700,17.578,-656.738,178.223,4.395,-15.625
1709252670.701,30.273,-548.828,404.785,49.805,10.254
1709252670.705,33.203,-250.488,820.801,57.617,53.711
1709252670.709,16.113,-250.000,890.137,14.160,34.180
1709252670.713,4.883,-620.605,412.109,2.930,-30.273
1709252670.717,20.020,-652.344,293.457,33.203,-8.301
1709252670.721,30.273,-510.742,496.094,45.410,22.461
1709252670.725,21.484,-722.656,292.480,3.418,-3.418
1709252670.728,12.207,-915.527,-97.168,-40.527,-48.828
1709252670.732,20.020,-971.191,-431.641,-7.324,-78.125
1709252670.736,35.156,-647.949,55.176,37.109,-12.695
1709252670.740,21.484,-314.941,724.609,10.742,23.926
1709252670.744,-1.465,-592.285,483.398,-48.828,-25.879
1709252670.746,-7.324,-768.555,192.383,-27.344,-24.902
1709252670.750,7.812,-413.574,589.355,27.832,24.414
1709252670.754,31.738,-167.480,-983.887,22.461,33.203
1709252670.758,13.184,-578.125,553.711,-18.555,-20.996
1709252670.762,3.418,-902.832,-48.340,-30.273,-58.105
1709252670.766,23.438,-724.609,29.785,35.645,-9.277
1709252670.770,40.039,-493.652,383.789,66.406,47.363
1709252670.773,48.340,-678.711,45.898,40.527,-11.230
1709252670.777,23.438,-984.375,-615.234,42.480,-66.406
1709252670.781,4.395,-636.719,-153.809,61.035,-0.488
1709252670.785,15.625,-243.652,518.066,49.805,54.688
1709252670.789,15.137,-301.270,528.809,-7.812,20.020
1709252670.806,2.441,-453.613,197.266,-56.152,-24.902
1709252670.810,8.789,-277.344,259.277,-23.438,12.695
1709252670.814,6.836,-208.008,382.324,36.621,33.691
1709252670.818,12.695,-451.660,63.965,24.902,11.719
1709252670.822,23.926,-556.641,-219.727,-29.297,-20.996
1709252670.826,27.832,-643.066,-395.996,-0.488,-12.207
1709252670.830,34.180,-636.230,-368.164,53.223,26.855
1709252670.833,33.203,-795.410,-568.359,37.598,-4.395
1709252670.837,10.742,-722.168,-645.508,-14.160,-7.324
1709252670.841,21.973,-389.648,-219.238,-25.879,25.391
1709252670.845,74.219,-352.051,15.625,37.109,14.648
1709252670.849,70.801,-289.551,199.219,41.016,33.691
1709252670.836,30.762,-199.707,353.027,-19.043,40.039
1709252670.840,22.461,-302.734,245.605,-20.996,15.137
1709252670.844,49.805,-313.965,217.773,51.270,46.875
1709252670.848,52.246,-234.863,329.102,97.656,41.504
1709252670.852,23.438,-219.727,368.164,44.922,25.879
1709252670.856,9.766,-514.648,-4.883,-39.551,24.902
1709252670.860,2.441,-856.934,-551.758,-6.836,0.000
1709252670.863,9.766,-648.926,-396.484,60.059,26.367
1709252670.867,30.273,-311.035,72.754,33.691,37.109
1709252670.871,30.762,-320.312,171.387,0.000,26.367
1709252670.875,22.949,-759.766,-473.633,-14.160,-27.344
1709252670.879,26.855,-891.602,-898.926,10.742,-39.062
1709252670.881,24.902,-382.812,-236.328,23.438,36.133
1709252670.885,18.555,-346.191,-20.020,-30.273,23.926
1709252670.889,20.508,-603.516,-393.066,-61.035,-7.324
1709252670.893,28.809,-428.223,-307.617,-15.625,21.973
1709252670.897,46.387,-126.465,117.188,20.020,56.641
1709252670.901,39.062,-388.672,-104.004,-14.160,45.898
1709252670.905,17.578,-922.852,-871.582,-57.129,6.348
1709252670.908,12.207,-679.199,-816.895,-30.762,21.484
1709252670.912,27.344,-210.449,-172.852,13.184,73.730
1709252670.916,33.691,-473.145,-292.969,-12.695,39.062
1709252670.920,14.648,-797.363,-801.758,-54.688,-22.949
1709252670.924,26.855,-548.828,-624.512,-33.691,8.789
1709252670.941,57.617,-178.711,-8.789,22.461,59.570
1709252670.945,52.246,-154.785,201.660,0.488,52.734
1709252670.949,36.133,-436.035,-176.758,-70.312,-4.395
1709252670.953,29.785,-506.348,-388.184,-72.266,-19.043
1709252670.957,37.109,-283.691,-96.191,-16.113,25.391
1709252670.961,46.387,-289.062,17.090,-0.977,46.387
1709252670.965,37.598,-635.254,-441.406,-52.734,8.301
1709252670.968,45.898,-694.336,-680.664,-68.848,-11.719
1709252670.972,63.477,-347.656,-234.375,-20.020,32.227
1709252670.976,43.945,-452.148,-181.152,-13.184,43.457
1709252670.980,16.602,-620.605,-435.547,-61.035,15.625
1709252670.984,18.555,-585.938,-519.531,-100.098,-21.484
1709252670.987,22.949,-614.746,-571.777,-76.660,-22.461
1709252670.991,33.203,-476.562,-383.789,-26.367,9.766
1709252670.995,41.992,-297.852,-159.668,-48.828,20.020
1709252670.999,19.531,-252.441,-93.750,-109.863,2.930
1709252671.003,2.930,-389.160,-271.973,-116.699,-12.695
1709252671.007,19.043,-366.699,-280.762,-69.336,23.926
1709252671.011,47.363,-333.008,-298.828,-65.918,25.879
1709252671.014,36.133,-292.969,-384.766,-122.070,6.348
1709252671.018,15.137,-433.594,-592.285,-161.621,-4.883
1709252671.022,20.508,-750.977,-956.055,-101.562,-27.344
1709252671.026,25.879,-393.555,-666.992,-85.938,10.254
1709252671.030,24.902,-160.156,-330.566,-176.270,9.277
1709252671.031,15.625,-414.062,-564.941,-240.234,-18.066
1709252671.035,23.926,-318.848,-479.004,-233.398,4.395
1709252671.039,45.410,-66.895,-55.664,-196.777,34.180
1709252671.043,32.715,-104.980,-6.348,-208.496,23.926
1709252671.047,14.648,-378.418,-403.320,-242.676,-1.465
1709252671.051,25.391,-568.848,-792.480,-238.281,-8.301
1709252671.055,44.922,-308.105,-542.480,-223.145,26.855
1709252671.058,43.945,-148.926,-321.289,-276.855,42.969
1709252671.062,24.414,-638.672,-725.586,-341.309,-35.156
1709252671.066,21.484,-774.414,-938.477,-326.172,-44.922
1709252671.070,33.691,-36.621,-272.461,-271.484,40.527
1709252671.074,33.203,262.207,298.828,-268.066,43.457
1709252671.076,29.297,-76.172,-92.773,-321.289,-46.875
1709252671.080,27.344,-198.730,-455.078,-340.332,-53.711
1709252671.084,35.156,82.031,-155.762,-290.527,8.301
1709252671.088,35.645,160.645,76.172,-278.320,27.344
1709252671.092,19.043,-187.500,-353.516,-317.383,-5.371
1709252671.096,20.996,-574.219,-911.133,-330.566,-63.477
1709252671.100,51.758,-577.637,-943.848,-302.246,-51.758
1709252671.103,42.969,-417.969,-726.074,-271.484,4.883
1709252671.107,15.625,-798.340,-869.141,-300.781,-57.129
1709252671.111,11.230,-855.957,-933.105,-346.191,-87.891
1709252671.115,12.695,-395.508,-415.039,-307.617,-31.738
1709252671.119,30.762,-168.945,200.684,-232.422,0.000
1709252671.122,33.691,-48.828,617.676,-258.301,20.508
1709252671.126,12.207,-76.172,708.008,-299.316,7.812
1709252671.130,10.254,-145.508,691.895,-285.645,16.602
1709252671.134,28.809,-145.508,781.250,-226.562,32.715
1709252671.138,32.227,-121.094,916.504,-208.008,36.621
1709252671.142,24.902,-391.113,676.270,-253.418,-1.465
1709252671.146,23.926,-819.824,126.465,-268.555,-59.570
1709252671.149,31.738,-960.938,-97.656,-206.543,-30.273
1709252671.153,30.273,-831.055,73.242,-166.504,6.348
1709252671.157,21.484,-469.727,625.488,-202.148,4.883
1709252671.161,13.184,-399.414,903.809,-271.484,-2.441
1709252671.165,28.809,-488.770,934.570,-250.000,6.836
1709252671.166,62.012,-258.789,979.980,-214.355,41.504
1709252671.170,71.289,-117.188,-982.422,-251.465,46.387
1709252671.174,43.945,-449.707,962.402,-259.766,-12.695
1709252671.178,19.531,-571.289,908.203,-243.652,-13.672
1709252671.182,40.527,-296.875,975.098,-193.848,21.973
1709252671.186,64.453,-323.242,-986.328,-178.711,39.551
1709252671.190,33.203,-671.387,716.309,-225.098,22.461
1709252671.193,0.977,-971.191,94.727,-237.305,-36.621
1709252671.197,20.508,-652.344,493.164,-173.340,10.742
1709252671.201,26.855,-226.074,-937.988,-142.090,53.223
1709252671.205,16.113,-390.137,978.516,-193.359,37.598
1709252671.209,4.883,-689.941,901.367,-203.613,15.625
1709252671.212,16.602,-519.531,936.035,-152.344,22.461
1709252671.216,36.133,-222.168,-966.797,-131.836,56.641
1709252671.220,15.137,-489.746,924.316,-184.082,61.035
1709252671.224,-4.395,-770.020,795.410,-236.816,46.875
1709252671.228,6.836,-533.203,909.180,-217.285,59.570
1709252671.232,20.996,-454.102,-940.430,-186.523,61.035
1709252671.236,19.531,-779.297,810.547,-243.164,24.414
1709252671.239,1.465,-895.020,637.207,-320.312,18.066
1709252671.243,13.672,-488.281,965.332,-302.246,64.453
1709252671.247,22.949,-120.605,-982.422,-247.070,99.609
1709252671.251,22.461,-160.645,985.840,-256.836,70.312
1709252671.255,13.672,-321.289,-998.535,-314.453,39.551
1709252671.257,9.277,-235.840,999.512,-342.285,49.316
1709252671.261,19.043,-82.520,999.512,-311.035,68.848
1709252671.265,28.320,-29.297,999.512,-301.758,95.703
1709252671.269,5.859,-71.289,999.512,-389.160,43.945
1709252671.273,-8.301,-10.742,999.512,-423.340,20.020
1709252671.277,29.785,-20.996,999.512,-353.027,48.340
1709252671.281,40.039,-149.902,999.512,-337.402,58.105
1709252671.284,2.930,5.371,999.512,-389.648,45.898
1709252671.288,-19.043,116.211,999.512,-391.113,10.742
1709252671.292,-1.953,-44.922,999.512,-362.793,16.113
1709252671.296,-11.719,-48.828,999.512,-349.609,47.363
1709252671.300,-41.504,305.664,999.512,-345.703,96.191
1709252671.316,-47.852,304.199,999.512,-368.652,71.777
1709252671.320,-50.781,180.176,999.512,-334.473,45.898
1709252671.324,-16.602,485.840,999.512,-234.863,125.000
1709252671.328,18.555,685.547,999.512,-226.074,134.277
1709252671.332,26.367,502.441,999.512,-298.340,85.938
1709252671.336,12.695,211.914,999.512,-338.867,54.199
1709252671.340,4.883,146.973,-999.023,-276.367,52.734
1709252671.343,11.230,488.281,975.098,-277.832,90.820
1709252671.347,-1.953,719.727,-935.547,-357.910,92.773
1709252671.351,-21.973,258.301,743.652,-431.641,45.898
1709252671.355,-8.789,131.348,550.293,-432.617,57.617
1709252671.359,19.531,894.531,993.164,-357.910,148.926
1709252671.361,15.137,954.102,-983.398,-378.906,119.629
1709252671.365,-39.062,643.066,982.422,-498.535,57.129
1709252671.369,-47.852,827.148,-997.070,-521.484,94.238
1709252671.373,-18.555,-972.656,999.512,-490.723,147.461
1709252671.377,-18.555,983.398,999.512,-548.340,144.043
1709252671.381,-39.551,816.895,999.512,-637.695,97.656
1709252671.385,-55.664,801.270,999.023,-674.316,113.770
1709252671.388,-41.992,-993.164,985.352,-681.152,168.945
1709252671.392,-13.184,912.598,-955.566,-701.172,165.039
1709252671.396,-19.043,253.418,787.598,-747.070,114.746
1709252671.400,-53.223,67.871,714.844,-793.945,89.355
1709252671.404,-24.902,546.387,-980.469,-792.969,157.715
1709252671.406,24.414,622.559,-998.535,-806.152,241.699
1709252671.410,-3.906,336.914,991.699,-880.371,235.840
1709252671.414,-43.945,-11.719,-999.023,-916.992,189.941
1709252671.418,-33.203,-190.918,999.512,-859.375,197.266
1709252671.422,-22.461,-256.836,999.512,-809.570,256.836
1709252671.426,-16.602,-622.559,999.512,-813.477,261.719
1709252671.430,-11.230,-951.660,999.512,-829.102,219.727
1709252671.433,-23.438,-970.703,999.512,-814.453,210.449
1709252671.437,-28.809,-963.379,999.512,-758.789,152.344
1709252671.441,-15.137,-974.609,999.512,-741.699,21.973
1709252671.445,-24.902,-962.891,999.512,-801.270,-55.176
1709252671.449,-62.012,-976.074,999.512,-801.758,13.672
1709252671.452,-62.988,-917.480,999.512,-696.777,84.473
1709252671.456,-56.152,-670.898,999.512,-616.699,86.426
1709252671.460,-81.543,-522.461,999.512,-578.125,83.984
1709252671.464,-106.934,-644.043,999.512,-540.039,87.402
1709252671.468,-82.031,-634.277,999.512,-410.645,105.469
1709252671.472,-54.199,-524.902,999.512,-271.973,113.281
1709252671.476,-46.875,-573.242,999.512,-240.234,105.469
1709252671.479,-66.406,-679.688,999.512,-234.863,97.168
1709252671.483,-81.055,-884.766,999.512,-162.109,80.566
1709252671.487,-69.824,-532.227,999.512,-59.082,106.445
1709252671.491,-71.777,-146.973,999.512,-59.570,150.879
1709252671.495,-98.145,-417.969,999.512,-85.938,126.465
1709252671.497,-94.238,-493.652,999.512,-16.602,135.254
1709252671.501,-62.012,-298.828,999.512,105.469,185.547
1709252671.505,-54.688,-400.879,999.512,161.133,166.504
1709252671.509,-66.895,-729.492,999.512,119.629,125.000
1709252671.513,-75.195,-917.480,999.512,103.027,119.629
1709252671.517,-91.309,-732.422,999.512,169.922,182.617
1709252671.521,-121.094,-666.016,999.512,178.223,210.938
1709252671.524,-135.254,-853.516,999.512,138.672,128.418
1709252671.528,-160.156,-970.215,999.512,117.676,68.359
1709252671.532,-133.301,-665.527,999.512,177.246,134.277
1709252671.536,-123.047,-489.746,999.512,229.492,164.551
1709252671.540,-147.461,-675.293,999.512,187.012,134.766
1709252671.556,-168.457,-785.156,999.512,173.340,108.398
1709252671.560,-195.801,-680.664,999.512,238.770,125.488
1709252671.564,-163.086,-640.625,999.512,322.266,139.648
1709252671.568,-142.578,-710.938,999.512,330.078,117.188
1709252671.572,-145.508,-754.395,999.512,314.941,115.723
1709252671.576,-157.227,-845.703,999.512,375.000,104.004
1709252671.580,-146.484,-756.348,999.512,462.891,123.047
1709252671.583,-118.652,-898.438,999.512,465.332,96.680
1709252671.587,-148.926,-917.480,999.512,408.691,59.082
1709252671.591,-168.457,-706.055,-999.023,419.922,76.172
1709252671.595,-159.180,-659.180,990.723,497.559,122.559
1709252671.599,-127.441,-564.453,-999.512,555.664,183.594
1709252671.586,-104.492,-663.086,966.797,508.301,181.152
1709252671.590,-117.188,-949.707,635.742,474.121,145.020
1709252671.594,-112.305,-975.586,234.375,513.184,138.184
1709252671.598,-96.191,-962.891,192.871,567.871,147.949
1709252671.602,-111.328,-972.656,173.340,538.086,134.277
1709252671.606,-136.230,-971.191,-314.453,457.031,63.477
1709252671.610,-125.488,-971.191,-472.656,458.496,62.988
1709252671.613,-93.262,-971.191,-15.137,512.207,119.629
1709252671.617,-54.199,-971.191,223.633,517.578,113.281
1709252671.621,-44.434,-971.191,260.254,465.820,57.617
1709252671.625,-52.734,-971.191,-119.629,457.031,-5.371
1709252671.629,-28.320,-971.191,-245.117,506.836,12.207
1709252671.631,4.883,-971.191,249.023,521.484,52.246
1709252671.635,-9.766,-971.191,229.004,439.453,27.344
1709252671.639,-19.531,-971.191,-13.672,398.438,2.441
1709252671.643,-20.020,-971.191,254.883,465.332,49.805
1709252671.647,-7.324,-971.191,691.406,525.879,104.004
1709252671.651,9.766,-971.191,420.898,505.859,34.668
1709252671.655,17.578,-971.191,-209.473,472.656,-33.203
1709252671.658,23.926,-971.191,65.430,516.113,-15.137
1709252671.662,23.438,-971.191,811.523,547.363,21.973
1709252671.666,24.902,-971.191,-987.793,516.113,22.949
1709252671.670,6.348,-971.191,981.445,503.418,16.113
1709252671.674,-15.625,-971.191,999.023,512.207,-4.395
1709252671.678,19.043,-971.191,-1000.000,570.801,28.809
1709252671.682,23.926,-971.191,999.512,562.988,29.297
1709252671.686,-6.348,-971.191,999.512,486.816,-47.852
1709252671.690,-13.672,-971.191,999.512,508.301,-43.457
1709252671.694,-2.441,-971.191,999.512,560.059,28.320
1709252671.698,18.555,-971.191,999.512,534.180,51.758
1709252671.702,20.020,-971.191,999.512,495.605,13.672
1709252671.705,29.297,-971.191,999.512,473.633,6.348
1709252671.709,43.457,-971.191,999.512,505.859,42.969
1709252671.713,51.758,-971.191,999.512,534.668,62.500
1709252671.717,57.617,-971.191,999.512,462.402,34.668
1709252671.721,71.289,-971.191,999.512,433.105,1.953
1709252671.737,72.754,-971.191,999.512,471.680,7.324
1709252671.741,66.895,-971.191,999.512,489.258,62.012
1709252671.745,60.059,-971.191,999.512,462.891,63.965
1709252671.749,57.617,-971.191,999.512,437.012,17.578
1709252671.753,57.129,-971.191,999.512,444.336,10.742
1709252671.757,53.711,-971.191,999.512,473.633,23.438
1709252671.761,44.434,-971.191,999.512,455.566,49.316
1709252671.764,26.855,-971.191,999.512,410.645,36.133
1709252671.768,27.832,-971.191,999.512,434.570,4.883
1709252671.772,62.012,-971.191,999.512,514.160,40.039
1709252671.776,62.500,-971.191,999.512,520.996,91.309
1709252671.780,44.434,-971.191,999.512,439.941,64.941
1709252671.781,52.246,-971.191,-1000.000,405.762,15.137
1709252671.785,63.965,-971.191,997.070,418.945,22.949
1709252671.789,71.289,-971.191,983.887,424.805,50.781
1709252671.793,84.961,-971.191,-965.332,387.695,58.105
1709252671.797,74.707,-971.191,723.145,320.801,-4.883
1709252671.801,60.547,-971.191,363.281,338.867,-20.508
1709252671.805,87.891,-971.191,494.141,394.043,36.133
1709252671.808,106.445,-971.191,586.426,379.395,27.344
1709252671.812,67.383,-971.191,125.977,356.445,-39.551
1709252671.816,57.129,-971.191,-274.902,352.051,-69.824
1709252671.820,93.262,-971.191,331.055,396.973,-19.043
1709252671.824,125.488,-971.680,838.379,409.668,10.254
1709252671.826,96.680,-968.750,672.852,338.867,-23.926
1709252671.830,71.289,-977.539,543.945,267.578,-48.828
1709252671.834,88.867,-954.102,704.102,277.344,-42.969
1709252671.838,80.566,-927.246,785.645,298.828,-48.340
1709252671.842,61.035,-968.262,617.188,258.301,-63.965
1709252671.846,58.105,-974.121,236.816,229.492,-118.652
1709252671.850,54.199,-969.238,43.457,235.352,-128.418
1709252671.853,52.734,-972.656,108.398,249.023,-98.633
1709252671.857,61.523,-959.473,-358.398,226.074,-165.527
1709252671.861,65.918,-993.164,-569.824,192.871,-211.914
1709252671.865,44.922,-846.191,12.695,197.266,-152.832
1709252671.869,61.523,-605.957,495.117,231.445,-108.887
1709252671.871,61.035,-535.156,664.062,207.031,-131.836
1709252671.875,40.039,-587.402,565.430,122.070,-163.574
1709252671.879,50.293,-651.855,404.785,88.379,-161.133
1709252671.883,47.363,-594.727,443.848,156.738,-139.648
1709252671.887,33.203,-501.953,587.402,168.457,-121.582
1709252671.891,24.414,-719.727,347.168,108.887,-132.812
1709252671.895,16.602,-962.402,-20.996,118.652,-139.160
1709252671.898,26.367,-971.191,-248.535,198.242,-136.719
1709252671.902,36.133,-892.090,-324.707,220.703,-119.629
1709252671.906,58.594,-676.758,48.340,181.152,-74.219
1709252671.910,73.242,-835.938,-122.070,160.645,-92.773
1709252671.914,90.332,-975.586,-451.660,198.730,-100.586
1709252671.916,100.586,-687.988,-24.902,246.582,-52.734
1709252671.920,83.008,-422.363,533.691,227.051,-20.508
1709252671.924,80.078,-593.750,480.957,190.918,-41.504
1709252671.928,74.219,-790.527,299.805,195.312,-57.129
1709252671.932,99.121,-515.625,732.422,232.910,-22.949
1709252671.936,78.613,-540.039,-961.914,215.820,-16.113
1709252671.940,42.480,-852.539,727.539,160.645,-58.594
1709252671.943,72.266,-1000.000,294.922,108.887,-120.605
1709252671.947,70.312,-737.793,660.156,136.719,-42.480
1709252671.951,66.406,-396.973,-949.707,183.105,20.020
1709252671.955,69.336,-708.496,980.469,107.910,-44.434
1709252671.959,52.734,-961.914,996.094,81.543,-67.383
1709252671.962,71.289,-779.785,-999.512,143.555,-22.461
1709252671.966,74.707,-717.285,999.512,158.691,19.043
1709252671.970,83.008,-873.535,999.512,114.746,-4.395
1709252671.974,97.656,-989.746,999.512,65.430,-49.316
1709252671.978,100.098,-903.809,999.512,97.168,-11.719
1709252671.982,122.559,-886.230,999.512,167.969,44.922
1709252671.986,90.820,-980.469,999.512,114.258,22.461
1709252671.989,73.242,-970.703,999.512,48.340,-37.598
1709252671.993,76.172,-969.238,999.512,55.664,-35.156
1709252671.997,84.961,-971.680,999.512,97.168,13.184
1709252672.001,104.004,-971.191,999.512,112.305,16.113
1709252672.005,70.312,-971.191,999.512,56.152,5.371
1709252672.006,54.199,-971.191,999.512,34.668,-19.531
1709252672.010,67.383,-971.191,999.512,87.891,-14.160
1709252672.014,73.242,-971.191,999.512,106.445,10.742
1709252672.018,56.641,-971.191,999.512,56.641,-22.461
1709252672.022,44.434,-971.191,999.512,36.621,-38.086
1709252672.026,56.152,-971.191,999.512,65.918,-14.160
1709252672.030,72.266,-971.191,999.512,82.031,7.324
1709252672.033,107.910,-971.191,999.512,47.852,4.395
1709252672.037,73.730,-971.191,999.512,-20.508,-3.906
1709252672.041,34.180,-971.191,999.512,14.160,-15.625
1709252672.045,71.289,-971.191,999.512,85.938,19.531
1709252672.049,78.613,-971.191,999.512,89.355,22.949
1709252672.066,49.316,-971.191,999.512,31.250,-37.109
1709252672.070,30.762,-971.191,999.512,14.648,-30.762
1709252672.074,54.688,-971.191,999.512,75.684,10.254
1709252672.078,70.801,-971.680,999.512,108.887,24.414
1709252672.082,59.570,-970.215,999.512,82.520,-23.926
1709252672.086,71.289,-967.285,999.512,78.613,-62.988
1709252672.090,96.191,-974.121,-998.535,153.320,-35.156
1709252672.093,99.609,-889.648,974.609,197.754,19.043
1709252672.097,64.453,-735.840,-942.871,150.391,51.270
1709252672.101,44.922,-874.512,763.184,104.980,-41.992
1709252672.105,66.406,-975.098,375.488,165.527,-87.891
1709252672.109,72.754,-670.410,728.027,197.266,12.695
1709252672.111,54.688,-539.062,726.562,164.551,20.996
1709252672.115,37.109,-852.539,-64.453,175.781,-50.781
1709252672.119,32.227,-929.199,-692.871,178.223,-58.594
1709252672.123,33.203,-619.629,-765.137,210.938,20.508
1709252672.127,39.062,-654.297,-885.254,200.195,10.254
1709252672.131,40.527,-954.102,-985.840,133.789,-70.801
1709252672.135,22.949,-1000.000,-965.332,149.902,-71.777
1709252672.138,74.707,-648.926,-971.680,259.277,-10.254
1709252672.142,92.773,-471.191,-971.191,259.277,9.277
1709252672.146,20.020,-854.980,-971.191,110.352,-35.156
1709252672.150,20.996,-758.301,-971.191,89.844,-41.016
1709252672.154,86.426,-210.449,-971.191,208.008,-7.812
1709252672.157,124.512,-29.785,-971.191,265.137,6.836
1709252672.161,92.285,-57.617,-971.191,211.914,-7.324
1709252672.165,43.945,46.875,-971.191,116.699,-49.316
1709252672.169,50.293,169.434,-971.191,128.906,-49.316
1709252672.173,71.777,331.543,-971.191,193.848,1.953
1709252672.177,77.148,156.738,-971.191,171.387,-26.367
1709252672.181,65.918,-115.234,-971.191,125.488,-62.988
1709252672.184,52.246,55.664,-971.191,116.211,-11.719
1709252672.188,78.125,9.277,-971.191,157.715,6.348
1709252672.192,85.449,-128.418,-971.191,168.457,-10.742
1709252672.196,46.875,137.207,-971.191,111.816,-11.230
1709252672.200,34.180,77.148,-971.191,83.496,-33.691
1709252672.202,55.664,84.961,-971.191,141.602,1.953
1709252672.206,76.660,160.156,-971.191,172.852,26.367
1709252672.210,73.730,157.715,-971.191,142.578,21.484
1709252672.214,70.312,-58.594,-971.191,107.422,-7.812
1709252672.218,79.590,-280.273,-971.191,111.328,-21.973
1709252672.222,91.309,-174.316,-971.191,137.207,23.438
1709252672.226,106.445,-283.691,-971.191,101.562,-1.953
1709252672.229,76.660,-589.844,-971.191,39.062,-33.691
1709252672.233,36.621,-833.984,-971.191,53.711,-41.504
1709252672.237,60.547,-556.152,-971.191,71.777,-22.461
1709252672.241,69.336,-272.461,-971.191,47.363,18.555
1709252672.245,72.754,-580.566,-971.191,17.090,-5.859
1709252672.246,61.035,-750.977,-971.191,6.836,-15.625
1709252672.250,67.871,-567.383,-971.191,59.082,24.902
1709252672.254,76.660,-567.383,-971.191,70.801,38.574
1709252672.258,41.992,-812.988,-971.191,42.480,23.438
1709252672.262,51.270,-983.398,-971.191,34.180,10.254
1709252672.266,88.379,-900.879,-971.191,73.730,39.062
1709252672.270,111.328,-787.598,-971.191,102.539,59.082
1709252672.273,118.164,-874.512,-969.238,67.383,38.086
1709252672.277,81.055,-959.473,-970.703,46.875,3.906
1709252672.281,63.965,-615.723,-977.539,95.703,20.508
1709252672.285,90.820,-341.797,-882.324,148.438,42.480
1709252672.289,80.078,-406.738,-864.746,126.465,52.246
1709252672.291,71.289,-525.391,-956.055,86.426,30.273
1709252672.295,81.543,-514.648,-984.863,110.840,12.207
1709252672.299,77.148,-289.551,-713.379,148.438,84.473
1709252672.303,76.660,-292.969,-635.254,136.230,88.379
1709252672.307,74.707,-455.566,-900.391,87.402,44.922
1709252672.311,79.590,-618.652,-976.562,83.496,29.785
1709252672.315,113.281,-672.852,-966.309,125.000,43.457
1709252672.318,104.004,-882.812,-970.215,133.301,25.879
1709252672.322,78.613,-875.488,-969.238,89.844,8.301
1709252672.326,60.059,-580.566,-969.238,54.688,35.156
1709252672.330,78.125,-557.617,-958.496,97.656,49.805
1709252672.334,106.934,-529.785,-823.242,122.559,49.316
1709252672.336,101.562,-497.070,-709.961,58.105,38.086
1709252672.340,96.191,-616.699,-790.527,35.645,21.484
1709252672.344,99.609,-694.336,-834.473,80.078,21.484
1709252672.348,114.258,-458.496,-455.566,94.238,71.289
1709252672.352,112.305,-325.195,-104.980,94.727,57.617
1709252672.356,86.914,-748.047,-563.477,31.738,-4.395
1709252672.360,84.961,-1000.000,-1000.000,3.418,-24.414
1709252672.363,96.680,-849.121,-844.727,67.383,-6.348
1709252672.367,121.094,-402.832,-192.871,82.520,69.824
1709252672.371,108.398,-434.082,-2.441,39.551,48.340
1709252672.375,59.570,-845.215,-496.094,53.711,-2.441
1709252672.379,56.152,-554.199,-199.707,125.488,52.734
1709252672.381,91.797,-104.004,544.922,115.234,80.566
1709252672.385,104.980,-249.512,581.543,58.594,29.297
1709252672.389,103.027,-541.016,229.980,61.035,-4.395
1709252672.393,107.422,-351.074,424.316,112.793,40.039
1709252672.397,102.539,-130.859,821.777,124.512,48.828
1709252672.401,82.520,-430.664,562.988,71.777,29.297
1709252672.405,58.594,-909.180,-291.016,22.461,10.742
1709252672.408,71.777,-803.223,-397.949,66.406,17.090
1709252672.412,85.449,-291.992,402.832,127.441,80.078
1709252672.416,63.965,-258.301,641.113,114.258,74.707
1709252672.420,59.570,-555.176,243.164,69.336,20.996
1709252672.424,65.918,-462.891,212.891,83.008,53.223
1709252672.427,79.102,-364.258,405.762,97.168,73.730
1709252672.431,88.867,-683.594,106.934,44.922,53.223
1709252672.435,63.477,-901.367,-252.930,-4.395,35.156
1709252672.439,58.594,-805.176,-221.191,32.715,24.414
1709252672.443,82.031,-511.230,212.891,117.676,82.031
1709252672.447,102.539,-575.195,288.574,122.559,93.262
1709252672.451,96.680,-834.473,-98.633,64.453,61.523
1709252672.454,81.543,-783.691,-210.938,21.973,37.109
1709252672.458,83.984,-568.359,76.172,68.848,63.477
1709252672.462,105.469,-630.371,153.320,111.328,81.543
1709252672.466,102.051,-812.500,-70.312,48.340,28.809
1709252672.470,99.609,-690.430,27.832,20.508,8.301
1709252672.487,119.141,-646.484,144.043,58.594,12.695
1709252672.491,121.582,-488.770,402.344,83.008,52.246
1709252672.495,90.820,-326.172,629.883,59.082,55.176
1709252672.499,75.684,-492.676,424.805,29.297,27.832
1709252672.503,90.820,-780.762,8.789,34.668,9.766
1709252672.507,66.895,-932.129,-308.105,72.266,0.488
1709252672.511,66.406,-801.270,-230.957,63.477,7.812
1709252672.514,93.262,-596.191,61.035,3.418,-4.395
1709252672.518,100.098,-772.461,-109.863,-12.207,-43.945
1709252672.522,101.562,-889.160,-366.699,41.504,-52.246
1709252672.526,102.539,-505.371,120.605,90.332,25.391
1709252672.530,89.355,-501.953,265.625,48.828,5.859
1709252672.531,76.172,-809.570,-177.734,16.113,-30.762
1709252672.535,78.125,-724.121,-173.828,53.711,17.578
1709252672.539,83.984,-443.848,218.750,63.477,33.691
1709252672.543,89.844,-506.348,244.629,16.602,-7.324
1709252672.547,85.938,-838.379,-313.477,-22.461,-74.707
1709252672.551,104.980,-986.816,-750.977,11.719,-80.078
1709252672.555,96.191,-961.914,-715.332,78.125,-68.848
1709252672.558,92.773,-964.844,-779.785,109.863,-98.633
1709252672.562,107.910,-965.820,-942.871,75.684,-122.559
1709252672.566,90.332,-978.027,-941.406,49.805,-112.793
1709252672.570,83.984,-680.664,-319.336,89.355,-19.043
1709252672.574,86.914,-364.258,409.668,81.055,31.250
1709252672.576,104.004,-604.004,254.883,42.480,-24.414
1709252672.580,85.449,-785.156,-38.574,48.340,-57.617
1709252672.584,72.266,-572.754,253.418,98.145,-4.883
1709252672.588,113.281,-463.867,572.754,99.121,18.555
1709252672.592,123.047,-682.129,403.809,76.660,-14.648
1709252672.596,102.051,-915.527,-98.145,71.777,-71.777
1709252672.600,97.168,-948.730,-259.277,86.914,-58.594
1709252672.603,84.961,-890.137,-14.648,110.352,19.531
1709252672.607,88.379,-922.852,-37.598,80.078,-2.930
1709252672.611,106.445,-958.008,-126.953,39.551,-17.090
1709252672.615,112.305,-771.484,114.746,56.152,21.973
1709252672.619,142.090,-717.285,287.598,133.301,-6.348
1709252672.622,132.812,-948.730,-98.145,136.230,-49.805
1709252672.626,86.914,-893.555,-215.332,46.387,-40.527
1709252672.630,78.125,-841.309,-202.148,39.062,-55.176
1709252672.634,99.609,-761.719,-188.965,131.348,-20.020
1709252672.638,104.492,-554.199,75.684,120.605,27.832
1709252672.642,89.844,-738.281,-169.434,42.969,-29.297
1709252672.646,90.820,-986.816,-803.223,21.973,-84.473
1709252672.649,91.309,-982.422,-991.211,84.473,-87.402
1709252672.653,93.262,-861.328,-843.750,136.230,-64.941
1709252672.657,106.934,-540.039,-444.336,111.816,-19.043
1709252672.661,105.957,-598.633,-468.262,103.027,-55.664
1709252672.665,86.914,-688.477,-670.410,134.277,-62.500
1709252672.667,120.117,-511.719,-469.727,156.738,-9.277
1709252672.671,134.277,-478.027,-343.262,149.414,-11.719
1709252672.675,99.121,-602.539,-458.496,106.934,-37.598
1709252672.679,90.332,-820.312,-755.371,129.395,-47.852
1709252672.683,111.816,-451.172,-292.480,203.125,24.902
1709252672.687,122.559,-184.082,291.504,192.383,55.176
1709252672.691,93.262,-531.250,27.344,155.762,-3.418
1709252672.694,83.984,-904.297,-527.832,134.277,-36.621
1709252672.698,96.680,-547.363,-226.562,187.988,6.836
1709252672.702,110.840,109.375,734.375,210.938,63.477
1709252672.706,92.773,25.391,840.332,130.859,24.902
1709252672.710,77.637,-195.312,544.434,103.516,-10.742
1709252672.711,116.699,20.508,780.762,191.406,30.273
1709252672.715,112.793,257.324,-967.285,229.492,59.570
1709252672.719,111.816,79.102,935.059,149.902,36.621
1709252672.723,122.070,-325.195,576.172,107.422,-1.465
1709252672.727,105.957,-262.207,544.434,163.574,23.438
1709252672.731,108.398,-90.820,824.707,226.562,52.246
1709252672.735,122.070,-444.824,538.086,211.426,38.574
1709252672.738,108.887,-926.758,-232.422,145.996,-15.137
1709252672.742,89.355,-704.102,-145.996,136.719,-6.836
1709252672.746,90.332,-211.914,674.805,190.918,68.359
1709252672.750,110.352,-116.699,-991.699,196.289,81.543
1709252672.754,105.469,-337.891,743.164,137.207,17.090
1709252672.757,98.145,-475.098,448.730,127.930,6.836
1709252672.761,111.816,-398.438,534.180,182.617,63.477
1709252672.765,129.395,-420.410,598.145,188.477,65.918
1709252672.769,114.258,-510.254,487.305,142.578,51.270
1709252672.773,78.125,-622.559,370.605,133.301,47.363
1709252672.777,83.984,-824.707,211.426,152.344,53.223
1709252672.781,107.910,-970.703,-20.020,183.105,41.992
1709252672.784,109.375,-968.262,-26.855,180.664,11.719
1709252672.788,99.121,-915.527,197.266,118.164,3.906
1709252672.792,102.539,-930.664,311.035,146.484,21.973
1709252672.796,103.027,-904.785,440.918,219.238,46.875
1709252672.800,110.352,-711.426,823.242,204.590,42.969
1709252672.816,108.398,-730.957,935.547,162.109,1.465
1709252672.820,75.684,-889.160,813.965,155.273,-7.324
1709252672.824,87.891,-672.363,928.223,222.656,61.035
1709252672.828,112.305,-471.191,995.117,238.281,67.383
1709252672.832,91.309,-623.047,-939.941,166.992,38.574
1709252672.836,78.613,-910.156,674.805,160.156,-23.926
1709252672.840,68.848,-863.281,534.668,238.770,-9.766
1709252672.843,80.566,-521.484,-991.699,280.273,58.105
1709252672.847,110.352,-531.738,-963.379,243.652,44.434
1709252672.851,91.797,-812.988,821.289,210.938,44.434
1709252672.855,80.078,-793.945,751.465,249.023,50.781
1709252672.859,97.168,-483.398,969.727,277.344,69.336
1709252672.861,94.238,-454.102,-950.684,226.074,82.031
1709252672.865,78.125,-803.711,570.801,170.898,38.574
1709252672.869,74.219,-989.746,16.113,179.688,-15.625
1709252672.873,96.680,-659.180,330.566,237.793,61.523
1709252672.877,96.680,-529.785,591.309,260.742,98.145
1709252672.881,73.730,-854.004,107.422,241.699,52.734
1709252672.885,84.961,-1000.000,-457.520,212.891,10.254
1709252672.888,112.305,-820.801,-275.391,230.469,41.504
1709252672.892,107.910,-651.367,126.465,252.441,92.285
1709252672.896,84.473,-923.340,-336.914,169.434,41.504
1709252672.900,64.453,-1000.000,-656.738,151.367,11.230
1709252672.904,86.914,-650.391,-153.809,229.004,68.359
1709252672.906,94.727,-675.781,-66.895,239.746,62.988
1709252672.910,77.637,-913.574,-438.965,191.895,6.348
1709252672.914,66.895,-808.594,-487.793,125.488,-6.348
1709252672.918,76.172,-700.684,-367.676,133.789,-1.953
1709252672.922,103.027,-558.105,-104.004,174.805,28.809
1709252672.926,86.914,-636.230,-100.586,166.992,31.738
1709252672.930,69.824,-905.762,-512.695,154.785,-15.625
1709252672.933,87.402,-832.031,-522.949,169.434,-19.531
1709252672.937,102.051,-821.777,-474.609,210.449,-0.977
1709252672.941,124.512,-901.855,-685.547,194.824,1.465
1709252672.945,109.375,-738.770,-576.172,143.066,0.000
1709252672.949,79.590,-883.301,-732.910,163.086,-27.832
1709252672.952,90.332,-781.250,-609.863,204.102,16.113
1709252672.956,104.980,-430.664,-61.523,190.918,62.988
1709252672.960,98.145,-493.164,35.645,139.160,26.855
1709252672.964,92.773,-832.031,-399.902,115.723,-11.719
1709252672.968,116.211,-864.258,-614.746,169.434,0.977
1709252672.972,113.281,-672.852,-355.957,193.359,47.363
1709252672.976,91.309,-797.852,-388.672,126.465,14.160
1709252672.979,68.848,-956.055,-720.215,71.777,-46.387
1709252672.983,74.219,-971.680,-936.035,98.145,-46.875
1709252672.987,118.652,-743.164,-473.633,134.766,9.277
1709252672.991,94.238,-382.812,272.949,125.000,50.781
1709252672.995,56.152,-573.730,190.918,97.656,7.324
1709252672.996,76.172,-807.617,-174.316,100.586,-47.363
1709252673.000,80.078,-445.312,192.383,133.301,17.578
1709252673.004,61.523,-144.043,654.785,131.836,57.129
1709252673.008,53.711,-434.082,311.523,92.285,-18.066
1709252673.012,56.641,-707.520,-174.805,78.125,-61.523
1709252673.016,86.426,-662.109,-198.242,151.367,-31.250
1709252673.020,87.891,-595.703,-32.715,161.133,12.695
1709252673.023,71.289,-745.117,-278.320,76.172,-3.906
1709252673.027,82.031,-1000.000,-915.527,58.105,-79.102
1709252673.031,90.332,-696.777,-561.523,134.766,-23.438
1709252673.035,84.961,-240.723,243.164,192.871,47.363
1709252673.039,72.754,-326.172,230.957,138.184,1.465
1709252673.041,59.570,-506.348,-151.855,74.219,-30.273
1709252673.045,69.336,-373.535,-159.180,76.172,2.441
1709252673.049,89.355,-234.375,24.414,118.164,28.809
1709252673.053,109.375,-303.223,-68.848,117.676,19.531
1709252673.057,98.145,-400.879,-325.684,79.102,3.418
1709252673.061,69.824,-584.473,-710.938,60.547,-8.301
1709252673.065,78.613,-685.059,-951.172,83.984,-1.465
1709252673.068,109.375,-772.949,-959.961,101.074,2.441
1709252673.072,113.770,-773.926,-970.215,49.316,-16.113
1709252673.076,80.078,-590.332,-970.703,21.484,-29.785
1709252673.080,76.660,-495.117,-971.191,83.984,1.465
1709252673.084,92.773,-448.242,-971.191,98.145,23.438
1709252673.101,88.867,-260.742,-971.191,44.434,36.133
1709252673.105,67.383,-262.207,-971.191,12.695,42.969
1709252673.109,58.594,-346.680,-971.191,39.062,18.555
1709252673.113,74.707,-198.730,-971.191,64.453,41.504
1709252673.117,66.406,-69.824,-971.191,40.039,61.523
1709252673.121,53.223,-379.883,-971.191,0.488,-0.488
1709252673.125,87.402,-816.406,-971.191,23.926,-55.664
1709252673.128,96.191,-671.387,-971.191,93.750,-4.883
1709252673.132,76.172,-130.371,-971.191,45.410,62.500
1709252673.136,59.082,-240.234,-971.191,-40.039,18.066
1709252673.140,48.828,-457.520,-971.191,-38.574,-4.395
1709252673.144,69.336,-404.297,-971.680,34.180,23.926
1709252673.132,93.262,-332.031,-971.680,60.547,44.434
1709252673.136,84.473,-443.848,-953.125,-0.977,3.906
1709252673.140,60.059,-745.605,-996.582,-13.184,-37.598
1709252673.144,66.895,-475.098,-816.895,62.500,35.645
1709252673.148,93.262,-56.641,-267.090,83.984,85.938
1709252673.152,78.125,-358.887,-377.930,51.758,33.691
1709252673.156,68.848,-856.445,-962.402,-7.812,-36.621
1709252673.159,57.617,-657.227,-859.863,-33.203,-8.301
1709252673.163,64.453,-112.793,-116.211,42.480,76.660
1709252673.167,88.379,-144.043,169.434,53.223,62.500
1709252673.171,65.918,-791.016,-616.211,-15.625,-17.090
1709252673.175,75.684,-750.000,-799.805,-10.742,5.859
1709252673.191,98.145,-271.484,-102.539,57.129,66.406
1709252673.195,86.426,-236.328,139.648,34.668,61.035
1709252673.199,80.566,-492.676,-164.062,-38.574,34.668
1709252673.203,92.285,-607.910,-414.551,-25.391,24.414
1709252673.207,103.516,-350.586,-69.824,64.941,71.289
1709252673.211,84.473,-572.754,-229.980,77.637,53.711
1709252673.215,55.176,-1000.000,-937.012,7.812,-13.672
1709252673.218,50.781,-945.312,-977.539,-1.953,-7.812
1709252673.222,74.219,-683.594,-568.359,21.484,57.129
1709252673.226,62.012,-512.695,-208.496,41.016,84.473
1709252673.230,41.992,-486.328,-136.230,10.254,69.336
1709252673.234,44.434,-506.348,-207.031,-27.344,48.340
1709252673.236,67.871,-593.262,-324.707,29.297,30.762
1709252673.240,93.750,-471.680,-139.648,94.727,78.125
1709252673.244,76.660,-296.875,134.766,75.195,92.773
1709252673.248,59.082,-318.359,142.090,20.508,62.988
1709252673.252,54.199,-460.449,-24.414,33.203,39.551
1709252673.256,79.590,-491.211,-48.340,104.980,64.941
1709252673.260,83.984,-433.105,37.109,103.027,79.102
1709252673.263,74.219,-528.809,-86.914,52.246,45.410
1709252673.267,56.152,-563.965,-113.770,57.129,39.062
1709252673.271,77.637,-800.781,-334.961,112.793,43.457
1709252673.275,121.582,-512.695,-50.293,143.555,92.285
1709252673.279,119.141,19.531,696.289,75.195,92.285
1709252673.281,94.727,-137.207,669.434,34.668,42.969
1709252673.285,90.332,-134.766,666.992,78.125,43.945
1709252673.289,99.121,161.133,942.871,120.605,74.219
1709252673.293,85.938,235.840,-950.684,100.586,90.820
1709252673.297,65.430,-70.801,750.488,55.176,48.340
1709252673.301,65.918,-407.715,217.285,70.312,15.625
1709252673.305,65.918,-326.172,255.371,110.840,75.684
1709252673.308,46.387,-138.184,562.988,91.797,90.820
1709252673.312,47.363,-526.367,160.645,45.898,37.598
1709252673.316,63.477,-984.863,-590.332,61.523,-1.953
1709252673.320,71.289,-512.695,-123.535,117.676,43.945
1709252673.324,65.918,-140.625,601.562,115.723,78.613
1709252673.326,51.758,-379.395,432.617,70.801,33.691
1709252673.330,62.988,-509.766,180.176,62.500,26.367
1709252673.334,62.500,-290.039,445.312,130.371,80.566
1709252673.338,54.688,-263.672,611.816,169.922,80.078
1709252673.342,69.336,-565.918,260.742,117.188,33.691
1709252673.346,60.059,-882.324,-272.461,93.750,3.418
1709252673.350,39.551,-917.969,-432.129,110.840,38.086
1709252673.353,32.227,-747.559,-127.441,140.137,85.938
1709252673.357,39.551,-886.719,-253.418,116.699,63.965
1709252673.361,70.312,-867.676,-340.332,50.781,25.391
1709252673.365,73.730,-545.898,116.211,35.156,27.344
1709252673.369,75.684,-535.156,336.426,113.770,48.340
1709252673.371,85.938,-534.668,355.469,119.629,41.016
1709252673.375,60.547,-309.570,542.480,49.805,35.156
1709252673.379,52.246,-263.184,609.863,62.012,35.156
1709252673.383,73.242,-190.430,726.074,120.117,63.477
1709252673.387,96.680,-80.078,855.957,124.023,76.172
1709252673.391,74.707,-193.848,656.250,67.871,61.035
1709252673.395,85.449,-436.035,201.172,43.457,39.062
1709252673.398,115.723,-683.594,-232.910,87.402,34.180
1709252673.402,95.703,-649.902,-336.426,137.695,71.289
1709252673.406,77.148,-288.086,21.973,115.723,74.219
1709252673.410,82.520,-335.449,33.203,82.520,29.785
1709252673.414,94.727,-393.555,-36.621,111.816,55.664
1709252673.416,83.008,-199.707,259.277,142.578,94.238
1709252673.420,100.098,-61.523,569.336,107.910,97.168
1709252673.424,101.074,-411.621,257.812,70.312,56.641
1709252673.428,64.453,-814.941,-300.781,111.816,24.414
1709252673.432,76.172,-502.930,52.734,150.879,73.242
1709252673.436,85.449,-333.008,477.051,119.141,100.586
1709252673.440,60.059,-705.566,104.004,77.637,49.805
1709252673.443,62.988,-915.039,-284.180,65.430,19.531
1709252673.447,70.312,-500.000,228.027,135.254,96.680
1709252673.451,75.195,-96.191,967.285,191.895,123.535
1709252673.455,50.781,-368.652,862.305,164.551,71.777
1709252673.459,18.555,-840.332,210.938,143.555,48.828
1709252673.461,56.641,-554.199,385.742,155.273,87.891
1709252673.465,101.074,-74.219,987.305,167.480,132.324
1709252673.469,82.031,-207.031,935.059,125.488,97.656
1709252673.473,60.059,-517.578,646.484,88.867,38.086
1709252673.477,62.500,-437.500,678.711,140.625,54.688
1709252673.481,70.801,-317.383,902.832,193.359,93.750
1709252673.485,82.520,-637.207,585.449,182.617,79.102
1709252673.488,78.613,-1000.000,-132.324,140.625,26.367
1709252673.492,71.777,-728.516,65.430,127.930,61.523
1709252673.496,86.914,-296.875,834.961,185.547,120.605
1709252673.500,69.824,-273.438,-983.398,194.824,105.469
1709252673.504,48.340,-370.605,979.492,153.809,87.402
1709252673.506,48.828,-438.965,967.285,145.020,59.570
1709252673.510,69.824,-394.531,974.609,187.988,88.867
1709252673.514,79.590,-410.645,-994.141,198.242,107.910
1709252673.518,49.316,-515.625,963.379,147.461,82.520
1709252673.522,29.297,-662.598,840.820,125.977,59.570
1709252673.526,32.227,-868.164,665.039,207.031,59.570
1709252673.530,46.875,-982.422,469.727,253.906,74.219
1709252673.533,45.410,-789.551,734.863,196.777,103.027
1709252673.537,35.645,-699.707,-968.750,139.160,95.215
1709252673.541,38.574,-860.352,987.305,142.090,61.035
1709252673.545,72.266,-741.211,996.094,177.734,89.355
1709252673.549,83.496,-503.418,-999.512,161.133,96.191
1709252673.566,69.336,-589.844,999.512,110.352,62.988
1709252673.570,58.594,-756.836,999.512,97.656,49.316
1709252673.574,62.012,-581.055,998.535,148.926,95.215
1709252673.578,72.754,-365.234,995.605,163.086,116.699
1709252673.582,54.688,-509.277,-986.816,133.301,69.336
1709252673.586,35.156,-798.828,926.758,118.652,50.781
1709252673.590,60.547,-837.891,907.715,147.461,75.195
1709252673.593,73.730,-500.977,986.328,162.598,114.746
1709252673.597,68.848,-329.102,-947.266,127.441,122.559
1709252673.601,68.359,-717.285,770.020,126.953,92.773
1709252673.605,53.711,-824.219,604.004,171.875,102.539
1709252673.609,20.996,-398.438,960.938,168.457,155.762
1709252673.611,3.906,-360.352,-950.684,160.645,130.859
1709252673.615,36.621,-795.410,541.016,154.785,49.805
1709252673.619,41.016,-861.816,227.051,147.461,65.430
1709252673.623,11.230,-367.676,748.047,166.016,162.109
1709252673.627,23.438,-253.418,-964.844,166.504,176.270
1709252673.631,27.344,-694.336,503.418,140.625,105.957
1709252673.635,-4.883,-1000.000,-238.770,123.535,64.453
1709252673.638,11.719,-745.605,-165.527,184.082,102.051
1709252673.642,40.527,-619.629,-21.973,182.617,123.535
1709252673.646,28.809,-941.406,-685.547,115.723,50.781
1709252673.650,11.719,-985.840,-1000.000,118.164,30.762
1709252673.654,17.578,-769.531,-762.695,158.203,81.543
1709252673.657,41.504,-658.203,-556.152,171.387,106.445
1709252673.661,27.832,-721.680,-630.859,129.395,95.215
1709252673.665,-1.465,-913.574,-894.043,73.730,36.133
1709252673.669,22.461,-866.699,-908.691,99.609,24.414
1709252673.673,54.688,-766.602,-751.465,145.996,52.246
1709252673.677,60.059,-884.277,-841.309,124.023,48.828
1709252673.681,28.320,-929.199,-962.891,80.566,37.109
1709252673.684,26.855,-756.836,-874.023,78.125,60.547
1709252673.688,70.801,-747.559,-799.805,116.211,58.594
1709252673.692,62.500,-855.957,-957.520,107.422,36.133
1709252673.696,26.367,-623.535,-956.543,41.992,50.293
1709252673.700,-6.836,-655.273,-967.285,15.137,38.574
1709252673.701,2.441,-698.242,-972.168,32.715,39.551
1709252673.705,3.906,-611.816,-970.703,73.242,48.340
1709252673.709,-14.160,-723.145,-971.191,26.855,30.273
1709252673.713,-2.930,-941.895,-971.191,-32.715,-19.531
1709252673.717,-2.930,-929.688,-971.191,16.602,-21.484
1709252673.721,-7.812,-879.395,-971.191,30.273,33.691
1709252673.725,-0.977,-958.008,-971.191,29.785,39.551
1709252673.728,10.742,-974.121,-971.191,26.855,7.324
1709252673.732,9.277,-973.633,-971.191,14.160,4.395
1709252673.736,9.277,-945.312,-971.191,36.133,59.082
1709252673.740,17.578,-938.965,-971.191,23.926,88.867
1709252673.744,2.441,-974.609,-971.191,-23.438,47.363
1709252673.746,-9.766,-971.191,-971.191,-20.996,50.781
1709252673.750,16.113,-970.703,-971.191,34.668,112.305
1709252673.754,28.809,-971.191,-971.191,52.734,117.188
1709252673.758,15.137,-971.191,-971.191,9.766,82.031
1709252673.762,13.184,-971.191,-971.191,-16.602,66.895
1709252673.766,17.090,-971.191,-971.191,2.441,85.449
1709252673.770,30.273,-971.191,-971.191,25.879,134.766
1709252673.773,46.875,-971.191,-971.191,-2.441,89.355
1709252673.777,20.996,-971.191,-971.191,-41.992,29.297
1709252673.781,40.039,-971.191,-971.191,-16.602,92.285
1709252673.785,58.105,-971.191,-971.191,13.672,142.578
1709252673.789,60.547,-971.191,-971.191,-9.766,122.559
1709252673.792,50.781,-971.191,-971.191,-52.246,64.453
1709252673.796,26.855,-971.191,-971.191,-33.203,92.285
1709252673.800,53.711,-971.191,-971.191,43.457,126.953
1709252673.804,57.129,-971.191,-971.191,36.133,105.469
1709252673.808,35.645,-971.191,-971.191,-45.898,81.543
1709252673.812,44.434,-971.191,-971.191,-68.848,49.316
1709252673.816,34.668,-971.191,-971.191,-34.668,52.734
1709252673.819,12.695,-971.191,-971.191,-44.922,61.523
1709252673.823,0.977,-971.191,-971.680,-112.305,36.133
1709252673.827,-1.953,-971.191,-968.750,-141.602,-6.348
1709252673.831,16.602,-971.191,-977.051,-81.055,20.996
1709252673.835,52.734,-971.191,-955.078,-41.504,83.496
1709252673.837,22.461,-971.680,-931.152,-83.008,70.801
1709252673.841,-29.785,-964.355,-950.195,-125.488,12.207
1709252673.845,-12.207,-986.816,-1000.000,-102.051,17.090
1709252673.849,-3.418,-908.203,-662.598,-63.965,76.172
1709252673.853,-14.648,-786.133,-86.914,-98.145,96.680
1709252673.857,1.465,-889.648,-124.023,-133.301,47.852
1709252673.861,22.949,-1000.000,-451.660,-99.121,19.531
1709252673.864,34.180,-854.004,-281.250,-18.555,49.316
1709252673.868,20.996,-464.355,378.906,-39.551,68.848
1709252673.872,-18.555,-407.715,558.594,-104.492,14.160
1709252673.876,-13.184,-498.047,442.383,-90.332,9.277
1709252673.880,38.574,-133.301,765.625,-14.648,92.285
1709252673.882,32.227,122.559,-959.473,14.160,75.684
1709252673.886,20.996,-88.379,957.031,-39.551,22.949
1709252673.890,22.461,-503.906,397.949,-63.965,8.789
1709252673.894,28.809,-394.531,290.527,-30.762,32.227
1709252673.898,46.387,62.012,886.719,-13.184,77.637
1709252673.902,20.020,-67.383,848.633,-56.152,63.477
1709252673.906,20.508,-728.516,-120.605,-91.309,24.902
1709252673.909,52.734,-787.109,-582.031,-48.828,10.742
1709252673.913,51.270,-197.266,-9.766,-0.977,54.688
1709252673.917,62.988,-170.898,93.262,-25.391,58.594
1709252673.921,32.715,-452.148,-375.977,-83.496,23.438
1709252673.925,-1.465,-461.426,-612.305,-82.520,37.109
1709252673.941,35.645,-265.137,-424.316,-41.504,90.332
1709252673.945,52.734,-312.012,-509.277,-40.527,98.145
1709252673.949,42.480,-668.945,-943.359,-59.082,21.484
1709252673.953,19.531,-723.145,-979.980,-47.363,-4.883
1709252673.957,22.949,-555.176,-958.496,-19.531,54.688
1709252673.961,21.973,-727.051,-974.121,-38.574,67.871
1709252673.965,12.207,-979.004,-967.285,-82.520,13.672
1709252673.968,30.273,-779.785,-981.445,-79.102,1.953
1709252673.972,43.457,-440.918,-916.504,-18.555,54.688
1709252673.976,59.082,-370.605,-889.160,16.113,76.172
1709252673.980,45.898,-335.938,-787.598,-10.254,75.195
1709252673.984,35.645,-245.117,-614.746,-49.316,72.754
1709252673.988,34.668,-284.180,-555.664,-49.805,41.504
1709252673.992,45.410,-141.113,-241.211,-10.254,81.055
1709252673.996,51.758,61.035,190.918,-9.277,105.957
1709252674.000,30.273,-28.809,243.652,-46.387,40.527
1709252674.004,35.156,-192.871,132.324,-59.570,15.137
1709252674.008,62.500,-177.246,238.770,-43.945,63.477
1709252674.012,75.195,-171.387,341.797,-6.348,59.082
1709252674.015,51.758,-328.613,225.098,-31.738,16.602
1709252674.019,15.137,-508.789,54.688,-80.078,-9.277
1709252674.023,12.695,-832.031,-278.320,-39.551,-22.949
1709252674.027,23.926,-616.699,-48.828,-8.789,7.324
1709252674.031,27.344,-86.914,721.680,-62.988,31.738
1709252674.031,-2.930,-311.035,647.949,-125.000,-36.621
1709252674.035,-13.184,-384.277,545.898,-74.707,-46.875
1709252674.039,16.113,-30.273,926.758,-2.930,13.184
1709252674.043,15.625,1.465,-969.238,-23.438,-2.930
1709252674.047,-7.812,-470.703,435.059,-74.707,-100.098
1709252674.051,-29.297,-839.844,-298.340,-34.180,-115.234
1709252674.055,-3.906,-757.324,-343.262,39.062,-56.641
1709252674.058,9.277,-641.602,-123.047,3.418,-50.293
1709252674.062,-22.949,-776.367,-394.043,-69.336,-74.707
1709252674.066,-43.457,-979.980,-829.102,-71.289,-113.281
1709252674.070,-23.926,-728.516,-379.395,-2.930,-53.223
1709252674.074,14.160,-439.453,158.691,31.250,-14.648
1709252674.077,11.230,-639.648,-4.395,-18.555,-57.129
1709252674.081,-0.488,-748.535,-192.383,-25.879,-57.129
1709252674.085,13.672,-435.059,241.211,24.902,-17.578
1709252674.089,40.039,-299.316,587.402,27.832,-1.465
1709252674.093,28.809,-426.758,491.699,2.441,-13.672
1709252674.097,12.207,-645.508,136.230,8.301,-34.180
1709252674.101,41.992,-602.051,91.797,20.508,-3.418
1709252674.104,55.176,-395.020,419.434,45.898,33.691
1709252674.108,45.410,-595.703,240.234,22.949,14.648
1709252674.112,25.879,-546.387,138.672,-21.484,1.465
1709252674.116,27.832,-209.961,569.336,44.922,7.812
1709252674.120,82.520,-0.977,924.316,132.812,62.988
1709252674.122,87.402,88.867,-977.051,100.586,77.637
1709252674.126,62.500,-119.141,904.785,42.969,31.250
1709252674.130,43.457,-196.777,856.934,41.504,36.133
1709252674.134,45.898,-166.992,926.270,103.516,69.336
1709252674.138,52.246,-127.930,967.773,115.723,90.820
1709252674.142,41.504,-142.090,909.180,80.566,83.008
1709252674.146,18.066,-404.785,567.383,65.918,41.992
1709252674.149,6.836,-682.129,157.227,62.012,31.738
1709252674.153,16.113,-650.391,167.969,97.168,65.918
1709252674.157,34.668,-285.156,640.625,104.980,70.312
1709252674.161,30.762,-281.250,777.344,73.242,46.875
1709252674.165,-10.742,-368.164,712.402,60.547,53.223
1709252674.181,-0.977,-180.664,876.953,132.812,83.984
1709252674.185,16.113,-46.387,-946.289,179.688,87.891
1709252674.189,12.695,-296.387,834.473,153.809,48.340
1709252674.193,11.230,-562.500,375.000,135.742,30.762
1709252674.197,23.926,-507.812,319.336,165.039,61.035
1709252674.201,34.180,-631.836,234.375,174.316,34.180
1709252674.205,15.625,-853.516,-113.281,158.691,-10.254
1709252674.208,8.789,-1000.000,-728.516,138.184,-65.918
1709252674.212,12.695,-771.484,-521.484,148.926,0.488
1709252674.216,27.832,-281.250,373.535,151.855,56.641
1709252674.220,34.180,-312.988,437.500,111.328,23.926
1709252674.224,12.207,-543.457,69.336,123.535,11.230
1709252674.211,17.578,-379.395,152.344,175.293,25.879
1709252674.215,42.969,-78.125,625.977,193.359,69.824
1709252674.219,35.156,-196.777,625.000,166.992,48.828
1709252674.223,27.344,-458.008,243.652,89.844,-0.488
1709252674.227,41.992,-494.141,107.422,106.445,-25.879
1709252674.231,48.828,-444.336,253.906,190.430,17.578
1709252674.235,30.273,-624.512,186.035,152.344,41.016
1709252674.238,0.488,-954.590,-212.402,80.078,-14.160
1709252674.242,-8.789,-837.402,-113.770,79.590,-13.672
1709252674.246,0.488,-388.184,590.820,145.508,37.598
1709252674.250,24.902,-533.203,695.801,127.930,42.969
1709252674.254,19.531,-968.262,95.703,62.988,3.418
1709252674.257,5.371,-772.461,256.348,49.316,-3.418
1709252674.261,2.441,-421.875,825.195,103.027,47.363
1709252674.265,5.371,-286.621,-989.258,137.695,66.895
1709252674.269,22.949,-377.930,979.004,117.676,6.348
1709252674.273,10.742,-475.586,975.586,102.051,-25.879
1709252674.277,22.461,-592.773,837.891,134.766,-4.395
1709252674.281,27.832,-884.277,377.441,149.414,1.465
1709252674.284,9.277,-848.633,275.879,92.285,4.883
1709252674.288,9.277,-629.883,575.684,75.195,16.602
1709252674.292,35.645,-684.082,649.414,116.211,24.414
1709252674.296,79.102,-689.453,745.117,192.871,36.133
1709252674.300,52.734,-474.609,950.195,186.523,50.781
1709252674.302,-2.441,-462.891,-973.145,109.375,25.391
1709252674.306,-11.230,-810.059,592.773,104.004,-27.344
1709252674.310,9.277,-834.473,374.512,144.043,17.578
1709252674.314,24.902,-539.062,777.832,122.070,73.730
1709252674.318,4.883,-707.031,728.027,75.684,22.949
1709252674.322,-5.859,-966.309,76.172,87.402,-30.273
1709252674.326,12.207,-977.051,-133.301,147.461,-14.160
1709252674.329,19.531,-796.387,430.176,143.066,48.828
1709252674.333,-16.602,-762.695,620.605,88.379,48.828
1709252674.337,-26.855,-954.102,104.980,61.523,-35.156
1709252674.341,2.930,-982.422,-67.871,109.375,-36.621
1709252674.345,15.137,-819.336,422.852,162.598,37.109
1709252674.361,10.254,-787.598,575.195,147.461,39.551
1709252674.365,0.977,-952.148,118.164,97.656,-16.602
1709252674.369,-26.855,-992.188,-152.344,76.172,-57.129
1709252674.373,-0.488,-907.227,172.852,92.773,-4.883
1709252674.377,25.879,-877.930,406.250,64.941,41.992
1709252674.381,-20.996,-971.680,-299.805,1.953,-24.414
1709252674.385,-38.086,-974.121,-794.922,-0.488,-64.453
1709252674.388,-3.418,-967.773,-309.082,62.012,-19.043
1709252674.392,26.855,-971.680,-141.113,73.730,11.719
1709252674.396,10.742,-971.191,-461.426,39.551,-40.527
1709252674.400,-8.789,-971.191,-632.812,3.906,-69.824
1709252674.404,17.090,-971.191,-502.930,40.039,-41.016
1709252674.423,20.508,-971.191,-421.875,83.008,-21.973
1709252674.427,7.324,-971.191,-500.488,83.008,-32.715
1709252674.431,-15.137,-971.191,-582.520,65.918,-61.523
1709252674.435,9.277,-971.191,-452.148,84.473,-29.297
1709252674.439,57.129,-971.191,-393.066,148.438,0.488
1709252674.443,28.320,-971.191,-572.266,113.770,-0.977
1709252674.447,-1.953,-971.191,-806.152,51.758,-33.691
1709252674.450,-16.602,-971.191,-981.445,63.477,-52.246
1709252674.454,-9.277,-971.191,-964.844,91.309,-20.020
1709252674.458,10.742,-971.191,-968.750,72.266,-3.418
1709252674.462,9.277,-971.191,-972.168,20.020,-3.418
1709252674.466,-2.441,-971.191,-971.191,19.531,-22.461
1709252674.452,-2.930,-971.191,-971.191,92.773,-10.254
1709252674.456,20.020,-971.191,-971.191,103.516,47.852
1709252674.460,12.695,-971.191,-971.191,42.969,36.133
1709252674.464,9.277,-971.191,-971.191,12.695,-33.691
1709252674.468,-7.812,-971.191,-971.191,41.016,-22.461
1709252674.472,-21.484,-971.191,-971.191,83.008,34.668
1709252674.476,-5.371,-971.191,-971.191,29.785,13.672
1709252674.479,-34.180,-971.191,-971.191,-38.574,-37.598
1709252674.483,-36.133,-971.191,-971.191,5.371,-35.645
1709252674.487,-29.785,-971.191,-971.191,56.152,28.809
1709252674.491,-38.086,-971.191,-971.191,50.781,40.039
1709252674.495,-30.273,-971.191,-971.191,16.602,-47.363
1709252674.497,-46.387,-971.191,-971.191,-4.395,-99.121
1709252674.501,-29.297,-971.191,-971.191,60.059,-27.832
1709252674.505,-30.273,-971.191,-971.191,63.965,32.227
1709252674.509,-48.340,-971.191,-971.191,-2.441,-36.621
1709252674.513,-40.527,-971.191,-971.191,-7.812,-69.336
1709252674.517,-17.090,-971.191,-971.191,36.133,-9.766
1709252674.521,-6.348,-971.191,-971.191,64.453,39.062
1709252674.524,-7.324,-971.191,-971.191,33.691,18.555
1709252674.528,-16.602,-971.191,-971.191,1.953,-33.691
1709252674.532,-2.930,-971.191,-971.191,60.547,23.438
1709252674.536,41.992,-971.191,-971.191,118.164,78.613
1709252674.540,53.223,-971.191,-971.191,72.266,46.875
1709252674.541,29.297,-971.191,-971.191,-10.254,24.414
1709252674.545,13.672,-971.191,-971.191,-25.879,36.133
1709252674.549,59.082,-971.191,-971.191,-4.395,68.359
1709252674.553,61.035,-971.191,-971.191,-10.254,64.941
1709252674.557,15.137,-971.191,-971.191,-62.500,46.387
1709252674.561,-5.859,-971.191,-971.191,-69.336,28.320
1709252674.565,-13.184,-971.191,-971.191,-1.465,33.691
1709252674.568,-5.371,-971.191,-971.191,19.531,69.824
1709252674.572,-29.785,-971.191,-971.191,-40.527,63.477
1709252674.576,-55.176,-971.191,-971.191,-73.242,39.062
1709252674.580,-36.133,-971.191,-971.191,-0.977,73.730
1709252674.584,-19.043,-971.191,-968.750,25.391,97.168
1709252674.588,-30.762,-971.191,-966.309,-19.531,101.562
1709252674.592,-60.059,-971.191,-962.891,-68.848,82.520
1709252674.596,-82.031,-971.191,-993.164,-67.383,53.711
1709252674.600,-89.355,-971.191,-838.867,-27.832,97.656
1709252674.604,-80.566,-971.191,-736.328,-42.480,104.492
1709252674.608,-86.426,-971.191,-905.762,-87.402,62.988
1709252674.612,-71.289,-971.191,-1000.000,-100.098,19.043
1709252674.615,-44.922,-971.191,-783.691,-42.969,64.941
1709252674.619,-61.523,-971.680,-270.508,-60.547,128.418
1709252674.623,-73.730,-967.773,-58.594,-106.934,107.910
1709252674.627,-73.730,-972.656,-33.691,-93.750,92.285
1709252674.631,-61.523,-959.961,204.102,-70.801,91.309
1709252674.646,-35.645,-816.406,738.281,-31.250,135.254
1709252674.650,-32.227,-814.941,904.297,-74.707,113.281
1709252674.654,-48.340,-971.680,726.562,-145.020,69.824
1709252674.658,-47.852,-863.281,891.113,-116.699,134.277
1709252674.662,-29.785,-678.223,-980.957,-76.660,189.453
1709252674.666,-30.762,-798.828,-980.957,-94.727,147.949
1709252674.670,-53.223,-1000.000,625.000,-155.762,76.660
1709252674.673,-37.109,-912.109,592.773,-163.086,98.633
1709252674.677,-6.836,-609.863,-981.445,-111.328,148.926
1709252674.681,-7.324,-606.445,-999.512,-159.668,144.043
1709252674.685,-47.852,-871.582,780.762,-212.891,103.516
1709252674.689,-73.730,-894.043,446.777,-182.129,100.586
1709252674.691,-41.016,-761.230,365.723,-134.277,145.996
1709252674.695,-34.668,-837.891,-62.500,-135.254,141.602
1709252674.699,-49.805,-985.352,-793.457,-211.426,111.816
1709252674.703,-60.059,-967.773,-982.422,-237.793,77.148
1709252674.707,-48.340,-968.750,-953.613,-150.879,97.168
1709252674.711,-40.039,-971.680,-971.191,-101.074,139.648
1709252674.715,-22.949,-971.191,-972.168,-151.367,85.938
1709252674.718,-2.441,-971.191,-971.191,-172.852,46.387
1709252674.722,-18.555,-971.191,-971.191,-159.668,90.332
1709252674.726,-4.395,-971.191,-971.191,-152.344,98.633
1709252674.730,1.953,-971.191,-971.191,-184.570,71.289
1709252674.734,-7.324,-971.191,-971.191,-238.770,32.715
1709252674.736,-4.883,-971.191,-971.191,-216.797,47.852
1709252674.740,23.438,-971.191,-971.191,-162.109,65.918
1709252674.744,32.715,-971.191,-971.191,-187.988,41.504
1709252674.748,23.438,-971.191,-971.191,-239.746,20.020
1709252674.752,27.832,-971.191,-971.191,-251.953,-19.043
1709252674.756,18.066,-971.191,-971.191,-228.516,-7.324
1709252674.760,12.207,-971.191,-971.191,-229.492,-23.926
1709252674.763,17.578,-971.191,-971.191,-260.254,-66.895
1709252674.767,30.762,-971.191,-971.191,-249.512,-83.496
1709252674.771,56.152,-971.191,-971.191,-209.473,-106.934
1709252674.775,88.379,-972.168,-971.191,-192.383,-81.055
1709252674.779,82.520,-964.844,-969.727,-234.863,-89.844
1709252674.781,63.477,-980.469,-973.633,-266.113,-141.113
1709252674.785,93.750,-947.266,-969.238,-214.355,-87.402
1709252674.789,98.633,-827.148,-939.941,-145.020,-0.977
1709252674.793,71.289,-856.934,-960.938,-145.020,-13.184
1709252674.797,65.430,-948.730,-976.074,-202.148,-36.133
1709252674.801,92.285,-972.168,-968.750,-158.203,-63.477
1709252674.805,122.559,-969.238,-971.680,-46.387,-40.527
1709252674.808,95.215,-971.191,-971.191,-41.016,-24.414
1709252674.812,39.551,-962.891,-971.191,-119.629,-64.941
1709252674.816,30.273,-993.652,-971.191,-125.977,-95.703
1709252674.820,53.711,-870.605,-971.191,-76.660,-23.926
1709252674.824,69.336,-773.926,-972.168,-31.738,27.344
1709252674.827,51.270,-935.547,-964.355,-91.309,-18.066
1709252674.831,30.273,-1000.000,-979.492,-137.695,-26.855
1709252674.835,41.504,-857.422,-954.102,-85.938,24.902
1709252674.839,58.105,-684.082,-750.977,-37.109,85.449
1709252674.843,37.109,-878.906,-822.266,-71.289,41.992
1709252674.847,20.508,-998.535,-1000.000,-109.863,-41.992
1709252674.851,37.109,-953.613,-918.457,-48.340,-20.020
1709252674.854,81.055,-939.453,-624.512,-11.230,30.273
1709252674.858,65.430,-955.078,-691.895,-61.523,4.395
1709252674.862,11.230,-996.094,-752.441,-137.695,-24.902
1709252674.866,29.785,-825.684,-342.285,-138.184,20.020
1709252674.870,41.992,-650.879,22.461,-70.312,52.734
1709252674.871,49.805,-617.188,198.242,-38.086,46.875
1709252674.875,35.645,-611.816,248.535,-55.176,27.344
1709252674.879,7.812,-656.738,248.047,-61.035,-2.930
1709252674.883,45.410,-556.152,472.168,9.277,29.785
1709252674.887,56.152,-455.566,703.613,-1.465,35.645
1709252674.891,47.363,-520.996,658.691,-55.664,3.418
1709252674.895,53.223,-559.082,564.453,-59.082,-1.465
1709252674.898,39.062,-654.785,492.188,-31.738,-15.625
1709252674.902,39.062,-806.152,305.176,-5.859,-12.207
1709252674.906,36.621,-397.461,659.668,-36.621,17.090
1709252674.910,14.160,-190.430,960.449,-70.801,-5.859
1709252674.914,35.645,-346.680,816.406,-19.531,-45.410
1709252674.917,57.617,-148.438,881.836,24.902,3.906
1709252674.921,30.762,89.844,-951.172,-36.133,55.664
1709252674.925,28.320,-183.105,823.242,-84.961,-0.977
1709252674.929,26.855,-471.191,355.469,-45.898,-13.672
1709252674.933,51.758,-375.977,324.707,29.297,0.000
1709252674.937,63.965,-448.730,257.812,26.855,-3.906
1709252674.941,45.410,-764.160,-286.133,-40.527,-27.832
1709252674.944,38.574,-992.676,-901.855,-81.055,-94.238
1709252674.948,30.273,-890.137,-901.855,-40.039,-69.824
1709252674.952,65.918,-524.902,-367.676,34.180,7.324
1709252674.956,79.102,-617.676,-334.961,5.859,-13.672
1709252674.960,41.504,-871.094,-704.102,-12.207,-44.434
1709252674.961,44.434,-652.344,-540.039,54.688,-0.488
1709252674.965,78.613,-357.910,-82.520,89.844,36.621
1709252674.969,54.688,-385.254,-3.418,50.293,36.133
1709252674.973,25.391,-607.422,-346.680,-6.348,-11.230
1709252674.977,58.594,-598.633,-466.309,-1.953,-35.645
1709252674.981,57.617,-469.727,-285.156,53.223,28.320
1709252674.985,43.457,-671.875,-470.215,48.340,32.227
1709252674.988,46.387,-922.852,-961.426,21.973,-23.926
1709252674.992,54.688,-541.992,-716.309,38.574,20.020
1709252674.996,60.059,-335.449,-402.344,86.426,34.668
1709252675.000,56.152,-440.430,-540.527,91.309,37.598
1709252675.004,62.012,-344.727,-554.199,20.508,50.293
1709252675.006,54.688,-245.117,-483.887,0.488,25.879
1709252675.010,52.734,-231.445,-458.496,43.945,6.348
1709252675.014,59.082,-210.449,-449.219,64.453,10.254
1709252675.018,60.059,-157.715,-437.988,37.598,11.719
1709252675.022,38.086,-225.098,-577.148,1.953,-21.484
1709252675.026,7.324,-477.539,-882.324,28.320,-41.504
1709252675.030,6.836,-772.461,-984.375,94.727,-22.461
1709252675.033,36.133,-697.754,-959.961,56.641,-37.598
1709252675.037,25.391,-501.465,-961.914,-16.602,-59.082
1709252675.041,13.672,-495.117,-989.746,20.996,-22.461
1709252675.045,51.270,-377.930,-813.477,69.336,13.672
1709252675.049,42.969,-248.535,-547.852,37.598,21.973
1709252675.052,27.344,-376.465,-648.438,12.695,-17.578
1709252675.056,34.180,-623.047,-907.715,32.715,-37.109
1709252675.060,31.738,-448.242,-595.703,75.195,16.602
1709252675.064,41.016,-27.832,123.535,83.984,37.598
1709252675.068,59.570,30.273,460.938,44.922,0.488
1709252675.072,54.688,-434.570,89.355,20.020,-44.434
1709252675.076,55.176,-638.184,-172.363,44.434,-45.898
1709252675.079,56.152,-67.871,533.691,50.781,7.812
1709252675.083,27.832,181.152,-965.820,32.715,14.648
1709252675.087,16.113,-150.391,742.188,-6.836,-24.414
1709252675.091,61.035,-100.098,713.867,24.902,25.879
1709252675.095,100.098,330.078,-977.539,103.516,72.266
1709252675.111,92.285,255.371,-989.746,100.098,36.133
1709252675.115,62.500,-40.039,929.199,56.152,1.953
1709252675.119,43.457,-93.262,909.668,8.789,-2.930
1709252675.123,38.086,51.270,968.262,28.320,44.922
1709252675.127,44.922,165.039,-920.898,69.824,71.289
1709252675.131,43.457,-431.152,532.715,38.574,15.625
1709252675.135,3.418,-772.949,-122.559,24.902,-0.488
1709252675.138,32.227,-140.625,477.539,85.449,66.895
1709252675.142,45.898,26.855,947.266,101.074,89.355
1709252675.146,20.508,-198.242,784.180,46.387,58.594
1709252675.150,30.762,-309.570,582.520,33.203,12.207
1709252675.154,36.621,-160.645,741.699,100.586,46.387
1709252675.156,52.734,-66.895,942.871,106.445,72.754
1709252675.160,48.340,-250.000,724.121,47.852,13.184
1709252675.164,24.902,-332.031,493.652,37.598,-18.066
1709252675.168,21.973,-274.414,512.695,75.195,-1.465
1709252675.172,20.996,-178.223,695.801,122.559,30.273
1709252675.176,11.719,-274.902,628.906,103.027,20.508
1709252675.180,12.207,-402.344,412.598,38.086,4.395
1709252675.183,12.695,-401.855,372.559,52.734,-2.930
1709252675.187,25.879,-402.344,501.465,128.906,10.742
1709252675.191,50.293,-467.285,572.754,121.582,22.461
1709252675.195,61.523,-166.016,872.559,15.625,11.719
1709252675.199,79.590,-4.395,-976.562,-5.859,-26.855
1709252675.201,91.309,37.598,985.352,62.012,-13.672
1709252675.205,89.355,283.203,-999.512,80.078,49.805
1709252675.209,83.008,185.547,999.512,60.059,3.418
1709252675.213,80.078,-143.066,999.512,37.109,-56.641
1709252675.217,65.430,-174.316,-1000.000,85.449,1.465
1709252675.221,61.523,-143.066,994.141,130.371,47.363
1709252675.225,47.852,-286.621,-996.582,97.168,42.480
1709252675.228,36.621,-563.477,-996.582,38.086,-8.789
1709252675.232,41.504,-875.000,855.957,15.137,-24.902
1709252675.236,41.992,-692.383,909.180,63.965,29.785
1709252675.240,59.082,-333.496,-966.309,87.402,42.480
1709252675.244,46.875,-573.730,958.008,36.133,8.789
1709252675.247,50.781,-752.441,935.547,28.320,11.230
1709252675.251,73.242,-383.301,997.070,76.660,54.688
1709252675.255,61.523,-261.719,-988.281,104.492,47.363
1709252675.259,35.156,-488.770,940.430,60.059,16.113
1709252675.263,14.160,-583.008,912.109,-1.953,12.207
1709252675.267,24.902,-556.641,887.207,42.480,33.203
1709252675.271,47.363,-416.016,-986.816,89.844,81.055
1709252675.274,21.484,-601.074,749.023,54.688,34.180
1709252675.278,-12.695,-936.035,94.727,43.457,-19.043
1709252675.282,6.348,-603.516,349.609,97.168,35.645
1709252675.286,37.109,-259.766,878.906,161.621,74.219
1709252675.290,25.879,-278.809,960.449,112.793,82.031
1709252675.292,-2.930,-624.023,549.805,18.066,33.203
1709252675.296,-2.441,-676.758,408.691,40.527,13.672
1709252675.300,9.277,-363.770,860.840,89.355,67.383
1709252675.304,14.648,-435.547,953.613,77.637,70.312
1709252675.308,12.695,-615.234,713.867,18.066,11.719
1709252675.312,-0.488,-729.492,456.543,-30.762,-29.785
1709252675.316,-1.465,-604.492,583.008,35.156,31.738
1709252675.319,27.344,-745.117,450.195,83.008,28.320
1709252675.323,32.715,-851.074,157.227,32.715,-13.184
1709252675.327,15.137,-362.793,659.180,12.695,13.184
1709252675.331,2.930,-171.875,-997.070,58.105,6.348
1709252675.335,18.066,-45.410,990.234,105.957,16.113
1709252675.337,20.996,109.863,992.676,69.336,31.250
1709252675.341,-1.465,44.434,-998.535,14.160,5.371
1709252675.345,7.324,-78.125,-1000.000,14.648,-2.930
1709252675.349,16.602,-46.387,995.605,78.613,11.719
1709252675.353,16.113,158.691,996.094,75.195,36.133
1709252675.357,15.625,-31.250,986.816,16.113,5.859
1709252675.361,13.672,-426.270,759.277,6.348,-22.949
1709252675.364,35.156,-494.141,663.086,48.828,18.066
1709252675.368,41.016,-19.043,955.078,67.383,60.059
1709252675.372,4.395,173.828,-981.934,44.434,31.250
1709252675.376,-19.531,-3.906,985.840,52.246,4.883
1709252675.380,3.906,96.680,-998.047,95.703,27.344
1709252675.381,20.996,311.035,999.512,82.031,74.707
1709252675.385,21.973,196.777,999.512,8.789,67.383
1709252675.389,28.809,-100.098,-999.512,2.441,22.949
1709252675.393,29.785,-19.043,995.605,58.594,41.504
1709252675.397,25.879,194.824,981.445,98.145,85.938
1709252675.401,33.203,-15.625,-937.988,77.148,61.035
1709252675.405,38.574,-711.914,589.844,35.156,4.395
1709252675.408,43.945,-712.891,478.027,17.578,40.039
1709252675.412,44.434,-29.785,-974.121,54.688,84.473
1709252675.416,36.133,-116.699,-996.582,59.570,42.969
1709252675.420,17.090,-506.348,967.773,17.090,-1.465
1709252675.424,9.766,-273.926,999.023,19.531,17.578
1709252675.441,35.156,113.281,-998.535,63.477,60.547
1709252675.445,41.992,83.984,998.047,64.453,59.082
1709252675.449,29.785,-67.383,999.512,11.230,31.250
1709252675.453,49.316,-125.977,999.512,-10.254,-15.625
1709252675.457,42.480,-5.859,999.512,52.246,-4.883
1709252675.461,45.898,-157.227,999.512,89.844,25.391
1709252675.465,48.340,-440.918,999.512,33.203,-10.254
1709252675.468,21.484,-240.234,999.512,12.207,-22.949
1709252675.472,7.324,-157.227,999.512,64.941,-15.625
1709252675.476,17.578,-450.195,999.512,102.051,-30.762
1709252675.480,19.531,-529.785,999.512,68.848,-34.668
1709252675.484,7.812,-350.586,999.512,28.809,-41.992
1709252675.487,10.742,-238.770,999.512,23.926,-15.137
1709252675.491,26.855,-117.676,999.512,70.312,30.273
1709252675.495,40.527,-57.617,999.512,93.262,32.715
1709252675.499,39.062,-149.414,999.512,49.316,-2.441
1709252675.503,37.598,-311.035,999.512,26.855,-20.996
1709252675.507,56.152,-351.562,-998.047,48.340,19.043
1709252675.511,71.777,-347.168,986.328,46.875,42.480
1709252675.514,24.902,-372.070,-991.699,-0.488,-3.418
1709252675.518,8.789,-489.258,989.258,3.906,-28.809
1709252675.522,17.090,-851.074,538.086,74.219,-26.855
1709252675.526,3.906,-664.062,551.270,84.473,6.836
1709252675.530,0.000,-423.340,873.047,21.484,16.113
1709252675.532,-6.836,-810.059,379.883,-3.906,-32.227
1709252675.536,10.254,-861.328,102.539,28.320,-36.133
1709252675.540,17.578,-387.207,657.715,69.336,30.273
1709252675.544,21.484,-182.617,-957.520,65.430,40.039
1709252675.548,16.113,-402.832,823.730,46.387,0.488
1709252675.552,11.230,-576.172,482.910,70.312,3.418
1709252675.556,26.855,-438.965,516.113,92.773,40.039
1709252675.559,30.762,-170.898,757.812,99.609,52.734
1709252675.563,17.578,-407.227,462.891,59.082,19.043
1709252675.567,7.812,-809.570,-211.426,-0.488,-32.227
1709252675.571,19.043,-281.250,215.332,41.504,25.879
1709252675.575,-3.906,167.480,921.875,56.641,72.266
1709252675.576,-5.859,25.391,890.625,-4.395,27.344
1709252675.580,4.395,-154.297,610.352,11.230,-39.062
1709252675.584,24.902,-166.504,524.414,59.570,-41.504
1709252675.588,31.738,-132.812,589.355,62.500,4.883
1709252675.592,21.973,-198.242,501.953,19.043,-0.977
1709252675.596,9.766,-434.570,160.645,-37.598,-37.109
1709252675.600,-18.555,-553.711,-25.391,-16.602,-39.062
1709252675.603,-11.719,-439.453,240.234,24.414,6.836
1709252675.607,-0.977,-730.469,45.410,0.977,-6.348
1709252675.611,-25.879,-894.531,-197.754,-42.480,-45.410
1709252675.615,-16.113,-500.488,394.531,-26.855,-36.621
1709252675.619,5.859,-257.812,910.645,14.648,-7.812
1709252675.622,16.602,-146.484,-997.559,39.551,15.625
1709252675.626,7.812,-190.918,985.840,11.719,-16.113
1709252675.630,-9.766,-307.129,979.980,-43.457,-38.086
1709252675.634,4.883,-373.535,852.051,-1.465,-24.414
1709252675.638,9.766,-394.531,781.738,34.180,-24.414
1709252675.642,-15.137,-662.598,416.016,12.695,-66.406
1709252675.646,-27.832,-968.262,-145.996,18.066,-120.117
1709252675.649,-9.277,-984.375,-417.480,13.672,-101.562
1709252675.653,11.230,-866.699,-334.961,8.789,-45.898
1709252675.657,-17.090,-619.141,73.730,-20.508,-31.738
1709252675.661,-24.902,-588.379,215.820,-71.777,-52.246
1709252675.665,24.902,-855.469,-192.871,-33.691,-83.496
1709252675.666,48.828,-823.730,-250.000,27.344,-56.152
1709252675.670,23.438,-523.926,252.441,-11.230,-21.484
1709252675.674,-5.371,-615.723,247.070,-59.570,-30.762
1709252675.678,18.555,-840.820,-40.527,-20.996,-42.480
1709252675.682,31.250,-680.664,119.141,61.035,-7.324
1709252675.686,-0.977,-677.246,242.188,52.246,29.785
1709252675.690,-17.578,-946.289,-214.844,-25.879,-1.953
1709252675.693,-10.742,-970.703,-748.535,-42.480,-30.273
1709252675.697,29.785,-981.445,-758.789,15.137,-11.230
1709252675.701,53.223,-810.059,-168.457,58.594,38.086
1709252675.705,21.484,-785.645,-33.203,-5.371,26.367
1709252675.709,-1.465,-995.117,-337.891,-21.973,-11.230
1709252675.711,0.977,-902.832,-139.648,44.922,16.602
1709252675.715,10.742,-571.777,407.227,79.590,84.473
1709252675.719,-5.371,-610.352,508.301,38.574,73.730
1709252675.723,-4.883,-852.051,199.707,11.230,37.109
1709252675.727,20.020,-772.461,248.535,38.574,44.922
1709252675.731,28.809,-797.852,397.949,55.664,59.570
1709252675.735,38.086,-910.156,230.469,24.902,57.617
1709252675.738,24.902,-989.258,-61.523,-13.672,2.930
1709252675.742,16.602,-826.660,311.523,-3.418,39.551
1709252675.746,9.766,-482.910,864.746,47.852,92.285
1709252675.750,1.465,-369.629,-973.633,49.316,104.980
1709252675.754,0.488,-564.941,890.625,-26.367,87.402
1709252675.757,33.691,-791.016,598.145,-28.809,45.898
1709252675.761,38.574,-704.590,655.762,25.879,52.734
1709252675.765,38.086,-759.766,657.227,31.250,63.477
1709252675.769,55.664,-731.934,657.715,-9.277,87.402
1709252675.773,39.551,-699.707,681.641,-21.973,56.641
1709252675.777,6.836,-829.590,557.129,19.531,60.059
1709252675.781,-9.277,-954.102,306.152,57.129,71.289
1709252675.784,7.324,-841.309,369.629,26.367,68.848
1709252675.788,7.324,-638.184,723.145,-32.227,71.289
1709252675.792,-2.930,-744.629,679.199,-38.574,36.133
1709252675.796,18.066,-633.789,797.852,5.371,65.918
1709252675.800,20.508,-413.086,-984.375,10.742,81.055
1709252675.816,5.371,-499.023,961.426,-49.316,44.434
1709252675.820,20.508,-702.148,658.203,-77.637,29.297
1709252675.824,33.203,-797.363,412.598,-18.066,41.504
1709252675.828,36.133,-699.219,419.922,23.438,21.484
1709252675.832,28.320,-726.562,415.527,-11.230,-2.930
1709252675.836,40.039,-929.199,-33.691,-26.855,-27.344
1709252675.840,50.293,-972.656,-479.492,15.137,-17.090
1709252675.843,0.977,-780.273,-13.184,36.133,36.621
1709252675.847,-21.484,-666.016,410.645,-14.648,26.855
1709252675.851,8.301,-819.336,199.707,-68.848,12.695
1709252675.855,6.836,-820.312,105.957,-55.664,25.879
1709252675.859,1.465,-648.438,277.344,-10.254,29.297
1709252675.861,8.789,-667.969,252.441,-0.488,26.855
1709252675.865,6.836,-878.418,-162.598,-3.418,-21.973
1709252675.869,3.906,-1000.000,-467.285,39.551,-59.082
1709252675.873,1.953,-732.910,-98.633,77.637,20.996
1709252675.877,10.254,-497.559,280.762,51.270,62.012
1709252675.881,-7.324,-754.395,-24.414,-8.301,12.207
1709252675.885,-7.812,-973.145,-440.430,-45.410,-22.461
1709252675.888,28.809,-876.953,-371.094,29.297,-14.160
1709252675.892,41.992,-744.629,-16.602,76.660,13.672
1709252675.896,38.086,-901.367,-286.133,17.578,-33.203
1709252675.900,10.254,-927.734,-514.160,-30.273,-79.590
1709252675.904,17.090,-564.453,108.887,16.602,-25.879
1709252675.907,50.293,-248.047,562.012,65.430,22.949
1709252675.911,34.668,-189.453,597.656,58.594,22.949
1709252675.915,0.000,-311.035,400.879,16.602,-12.695
1709252675.919,11.230,-390.137,271.973,17.578,-6.348
1709252675.923,36.621,-345.215,372.070,77.148,46.875
1709252675.927,20.508,-457.520,297.852,74.219,58.594
1709252675.931,-4.395,-761.230,-186.523,38.086,11.230
1709252675.934,5.371,-746.582,-371.582,61.523,22.461
1709252675.938,14.160,-719.727,-329.590,113.770,63.965
1709252675.942,8.301,-974.609,-751.465,113.281,27.344
1709252675.946,17.578,-852.539,-753.906,92.773,9.766
1709252675.950,40.527,-666.992,-408.203,115.234,50.293
1709252675.952,41.016,-680.176,-354.004,150.879,71.777
1709252675.956,18.555,-574.707,-289.062,119.141,105.469
1709252675.960,2.930,-647.949,-552.734,73.242,99.609
1709252675.964,-3.906,-937.012,-974.121,27.832,29.785
1709252675.968,6.348,-977.539,-969.727,51.270,14.648
1709252675.972,45.410,-962.891,-960.938,108.887,76.660
1709252675.976,51.270,-972.656,-973.633,48.340,92.773
1709252675.979,43.457,-964.355,-971.191,18.066,39.062
1709252675.983,37.598,-988.770,-971.191,75.195,5.371
1709252675.987,28.320,-890.137,-971.191,139.160,72.266
1709252675.991,33.203,-781.738,-971.191,105.469,121.582
1709252675.995,39.551,-920.898,-971.191,32.227,65.430
1709252675.996,60.059,-985.840,-971.191,48.828,25.879
1709252676.000,46.875,-838.379,-971.191,93.750,65.430
1709252676.004,21.484,-716.309,-971.191,84.961,80.566
1709252676.008,20.996,-852.539,-971.191,37.598,61.035
1709252676.012,19.043,-980.957,-971.191,45.410,27.344
1709252676.016,26.855,-907.227,-971.680,97.168,44.922
1709252676.020,11.230,-781.250,-971.680,72.754,97.656
1709252676.023,-8.301,-858.887,-953.125,23.438,43.457
1709252676.027,-6.348,-952.637,-993.652,10.254,-7.324
1709252676.031,-0.488,-674.805,-782.715,35.156,44.434
1709252676.035,19.043,-298.828,-184.570,84.961,91.797
1709252676.039,23.438,-301.758,-19.043,91.797,68.359
1709252676.042,20.996,-431.152,-207.520,31.250,22.949
1709252676.046,32.715,-371.094,-168.945,14.648,36.621
1709252676.050,44.434,-254.883,62.012,71.289,76.660
1709252676.054,45.898,-321.289,18.066,73.730,59.082
1709252676.058,32.715,-381.836,-114.746,53.223,25.879
1709252676.062,-2.441,-472.168,-263.672,56.152,0.977
1709252676.066,10.254,-546.387,-388.184,89.844,8.301
1709252676.069,21.973,-766.602,-701.172,56.152,-1.953
1709252676.073,0.977,-721.191,-821.777,-22.949,2.441
1709252676.077,9.766,-365.723,-412.598,2.930,10.254
1709252676.081,9.766,-391.113,-287.598,60.547,0.000
1709252676.085,33.691,-377.930,-230.469,74.707,30.273
1709252676.087,23.438,-113.281,50.781,38.574,60.059
1709252676.091,-2.441,-52.734,148.438,30.762,40.039
1709252676.095,-0.977,-171.387,-3.418,79.102,26.367
1709252676.099,16.113,-29.785,142.578,120.605,73.730
1709252676.103,0.977,139.648,406.738,70.801,86.914
1709252676.107,2.441,-49.805,198.730,21.973,55.176
1709252676.111,55.664,-440.918,-308.594,63.477,38.086
1709252676.114,58.594,-684.570,-734.863,131.348,56.641
1709252676.118,41.016,-204.102,-327.637,136.719,104.492
1709252676.122,20.996,128.418,166.504,92.773,83.984
1709252676.126,31.250,-41.992,-0.977,48.340,41.992
1709252676.130,51.758,114.746,139.160,76.172,88.379
1709252676.131,46.387,494.629,701.660,104.980,156.738
1709252676.135,24.414,440.430,760.742,72.754,128.906
1709252676.139,15.137,109.863,307.617,54.199,84.473
1709252676.143,41.016,144.043,248.047,84.961,114.258
1709252676.147,47.852,228.027,390.625,121.094,107.910
1709252676.151,20.508,-78.125,71.289,81.543,94.727
1709252676.155,3.906,-557.617,-654.785,24.414,81.055
1709252676.158,7.324,-568.848,-876.953,30.762,62.500
1709252676.162,34.668,-354.004,-599.121,98.633,86.914
1709252676.166,52.734,-407.227,-587.402,106.934,80.566
1709252676.170,27.832,-841.797,-886.230,41.504,-9.766
1709252676.174,27.344,-833.496,-1000.000,41.992,-18.066
1709252676.191,45.410,-313.477,-555.176,67.871,77.637
1709252676.195,32.227,-243.652,-206.543,39.551,88.867
1709252676.199,13.672,-436.523,-373.047,-19.043,50.293
1709252676.203,8.789,-454.590,-437.500,-13.672,41.992
1709252676.207,20.996,-334.961,-203.125,64.941,51.270
1709252676.211,43.457,-575.684,-354.980,89.355,43.457
1709252676.215,43.457,-956.543,-894.531,26.855,5.371
1709252676.218,10.742,-891.113,-964.844,-32.715,-20.508
1709252676.222,30.762,-640.137,-622.070,19.043,17.090
1709252676.226,49.316,-560.059,-386.230,49.805,49.316
1709252676.230,37.109,-709.473,-548.340,-1.953,13.184
1709252676.234,59.570,-689.453,-629.395,10.742,0.488
1709252676.236,70.312,-561.523,-532.715,34.180,-13.184
1709252676.240,51.758,-583.984,-561.523,28.320,-7.812
1709252676.244,38.086,-559.082,-594.238,19.531,4.395
1709252676.248,13.184,-500.977,-581.055,-28.809,-11.230
1709252676.252,23.438,-570.312,-684.570,-19.043,-10.254
1709252676.256,67.383,-611.328,-707.031,60.059,14.160
1709252676.260,39.551,-596.680,-654.785,54.688,31.250
1709252676.263,22.949,-600.098,-697.266,32.715,3.906
1709252676.267,32.227,-644.043,-740.723,20.020,-18.066
1709252676.271,51.270,-886.230,-916.504,30.273,-36.621
1709252676.275,62.988,-701.172,-714.844,27.832,-22.949
1709252676.279,15.137,-341.797,-162.598,-45.410,-5.371
1709252676.297,-12.207,-455.566,-85.938,-52.246,-38.086
1709252676.301,19.043,-568.359,-130.371,-56.152,-51.270
1709252676.305,19.043,-316.895,250.488,-27.832,6.348
1709252676.309,0.977,-80.078,675.293,5.371,-3.906
1709252676.313,14.648,-404.785,403.809,-29.297,-65.430
1709252676.317,40.527,-702.637,-41.016,5.859,-64.941
1709252676.321,47.363,-499.023,112.793,44.922,-42.969
1709252676.324,32.227,-278.320,423.340,-8.301,-57.617
1709252676.328,39.062,-541.016,137.695,-62.500,-92.773
1709252676.332,21.973,-748.047,-234.375,-43.457,-96.680
1709252676.336,21.973,-393.555,132.812,19.043,-46.387
1709252676.340,34.668,-251.465,450.684,9.766,-40.039
1709252676.326,25.391,-665.039,-112.305,-28.809,-112.793
1709252676.330,21.973,-981.934,-742.676,-49.316,-153.320
1709252676.334,-6.836,-742.676,-497.070,-1.953,-126.953
1709252676.338,4.883,-472.168,-13.672,52.246,-62.012
1709252676.342,21.973,-602.051,-9.277,23.926,-64.941
1709252676.346,-1.953,-879.395,-369.629,13.184,-103.516
1709252676.350,-20.020,-802.734,-335.449,52.246,-74.219
1709252676.353,-12.695,-695.312,-100.586,95.703,-49.316
1709252676.357,-19.531,-643.066,58.105,60.547,-48.828
1709252676.361,-19.531,-540.527,209.473,30.762,-62.988
1709252676.365,0.000,-411.133,421.875,61.035,-50.293
1709252676.369,0.000,-248.535,789.551,81.055,-2.441
1709252676.371,0.000,-656.738,416.016,71.777,-14.160
1709252676.375,-1.953,-781.250,51.758,6.836,-31.738
1709252676.379,7.324,-444.336,392.578,-9.277,-37.109
1709252676.383,21.973,-296.875,743.652,76.172,1.953
1709252676.387,16.113,-82.031,995.605,95.703,51.270
1709252676.391,21.973,-188.477,920.898,47.852,18.555
1709252676.395,35.645,-322.754,751.953,30.273,18.555
1709252676.398,73.730,-372.559,628.906,73.242,40.527
1709252676.402,77.148,-564.941,374.023,100.098,42.969
1709252676.406,31.738,-278.320,553.223,68.848,45.410
1709252676.410,-7.324,9.766,918.457,37.598,55.176
1709252676.414,-6.348,-21.973,893.555,39.062,61.035
1709252676.416,29.785,32.715,859.375,62.500,52.246
1709252676.420,47.363,174.805,972.168,67.871,74.219
1709252676.424,30.273,-15.137,720.215,20.020,49.316
1709252676.428,25.879,-287.598,292.480,3.418,33.691
1709252676.432,46.875,-145.508,428.223,93.262,80.078
1709252676.436,43.945,-163.086,504.883,109.375,77.148
1709252676.440,11.719,-495.117,113.281,56.152,36.621
1709252676.443,-11.719,-891.602,-514.160,59.570,4.883
1709252676.447,0.488,-695.312,-432.617,95.215,44.922
1709252676.451,-6.836,-73.242,456.543,93.750,104.492
1709252676.455,-27.344,-196.289,561.523,50.293,62.500
1709252676.459,-7.812,-534.668,141.113,26.367,13.672
1709252676.461,13.672,-336.426,297.363,58.594,45.410
1709252676.465,18.555,-89.355,713.379,96.680,80.566
1709252676.469,4.395,-318.848,567.871,67.383,45.410
1709252676.473,-12.207,-745.117,-41.992,18.555,-33.203
1709252676.477,-6.348,-713.867,-163.086,52.246,-28.809
1709252676.481,14.648,-574.219,103.027,111.328,46.387
1709252676.485,26.367,-758.301,-53.223,89.844,43.945
1709252676.488,0.977,-962.891,-494.629,30.273,-25.879
1709252676.492,19.531,-722.656,-224.609,-1.465,-10.742
1709252676.496,48.828,-366.211,436.035,61.035,32.227
1709252676.500,53.223,-288.574,713.867,67.383,29.297
1709252676.504,33.691,-353.516,687.988,0.977,15.137
1709252676.507,15.625,-300.293,773.438,-24.902,16.113
1709252676.511,16.113,-339.844,813.965,35.156,10.254
1709252676.515,31.250,-452.637,708.496,94.238,20.508
1709252676.519,47.363,-356.445,788.086,40.039,18.066
1709252676.523,36.621,-327.148,830.078,-20.996,-24.902
1709252676.527,23.438,-482.422,643.066,-3.906,-35.156
1709252676.531,35.645,-813.477,183.594,38.086,-32.715
1709252676.534,19.043,-764.648,91.797,25.391,-30.762
1709252676.538,-23.926,-347.168,565.918,-7.324,-9.277
1709252676.542,-14.160,-385.742,632.324,28.320,-33.203
1709252676.546,-11.719,-367.188,651.367,81.543,-21.973
1709252676.550,7.812,-228.516,748.047,59.570,-7.812
1709252676.566,30.273,-321.777,579.102,43.945,-20.020
1709252676.570,3.906,-594.727,162.109,41.992,-29.785
1709252676.574,21.973,-682.617,-79.590,73.242,-11.719
1709252676.578,27.344,-499.023,93.262,118.652,18.066
1709252676.582,3.906,-725.586,-144.531,84.961,6.836
1709252676.586,20.996,-973.145,-731.934,51.270,-49.316
1709252676.590,38.086,-982.422,-1000.000,67.383,-105.469
1709252676.593,35.645,-885.254,-775.879,80.566,-36.621
1709252676.597,30.273,-784.668,-500.000,43.945,12.695
1709252676.601,20.996,-924.316,-758.789,12.695,-41.992
1709252676.605,29.785,-972.656,-881.348,62.012,-42.969
1709252676.609,32.715,-814.453,-546.387,75.684,4.883
1709252676.611,36.133,-710.938,-337.891,35.156,14.648
1709252676.615,21.484,-882.324,-544.922,-6.836,-23.438
1709252676.619,18.555,-964.844,-681.641,-1.465,-55.176
1709252676.623,26.855,-729.004,-334.473,54.199,-24.414
1709252676.627,6.348,-586.426,6.348,51.270,-13.672
1709252676.631,-1.953,-833.984,-217.285,-2.441,-56.641
1709252676.635,5.371,-1000.000,-574.707,-31.738,-102.051
1709252676.638,9.766,-925.781,-470.703,-9.277,-90.332
1709252676.642,4.883,-798.340,-52.734,17.090,-50.781
1709252676.646,2.930,-916.992,-302.246,-22.461,-97.168
1709252676.650,18.066,-975.586,-573.730,-15.137,-135.742
1709252676.654,42.480,-736.328,18.066,57.617,-96.680
1709252676.657,50.293,-678.711,311.523,26.855,-87.891
1709252676.661,20.996,-784.668,215.332,-3.418,-92.285
1709252676.665,8.789,-835.938,83.984,2.441,-93.262
1709252676.669,29.785,-902.344,-15.137,3.418,-97.656
