timestamps,TP9,AF7,AF8,TP10,Right AUX
1709252887.751,-133.789,-532.227,180.664,-99.121,68.359
1709252887.755,-124.512,-961.914,-718.750,-96.191,19.531
1709252887.759,-114.258,-460.449,-211.426,-81.055,-7.324
1709252887.763,-119.141,-178.711,330.566,-85.449,65.430
1709252887.767,-119.141,-367.676,121.094,-84.473,79.590
1709252887.771,-108.887,-732.910,-485.352,-60.059,24.414
1709252887.775,-87.891,-661.621,-561.035,-17.578,94.238
1709252887.778,-57.617,-515.137,-290.039,28.320,104.004
1709252887.782,-45.410,-900.879,-740.723,24.902,41.504
1709252887.786,-44.922,-1000.000,-1000.000,6.348,34.668
1709252887.790,0.977,-765.137,-708.008,36.133,56.641
1709252887.794,32.715,-760.742,-541.016,54.199,-11.719
1709252887.796,34.180,-911.133,-675.293,57.129,-8.301
1709252887.800,28.320,-890.625,-708.496,71.777,22.461
1709252887.804,45.898,-953.125,-778.320,74.219,-0.977
1709252887.808,66.895,-841.797,-567.871,110.352,41.992
1709252887.812,67.383,-799.805,-391.602,116.699,36.621
1709252887.816,93.262,-932.617,-687.988,101.562,20.996
1709252887.820,94.727,-981.934,-982.910,96.680,30.273
1709252887.823,78.613,-964.844,-978.027,103.027,19.531
1709252887.827,98.145,-972.168,-889.648,119.141,-31.250
1709252887.831,118.164,-969.727,-712.891,109.863,0.000
1709252887.835,101.562,-977.051,-762.207,102.539,43.457
1709252887.839,103.516,-944.336,-645.996,113.281,67.871
1709252887.843,114.746,-940.430,-357.422,125.977,75.684
1709252887.847,96.680,-975.098,-346.680,118.164,19.531
1709252887.851,88.379,-970.215,-547.852,107.910,42.480
1709252887.855,102.539,-973.145,-635.742,112.793,83.984
1709252887.859,103.027,-945.312,-250.977,115.234,37.109
1709252887.863,104.004,-952.637,-153.320,98.633,13.184
1709252887.867,101.562,-971.680,-588.867,87.402,16.602
1709252887.870,96.680,-978.516,-856.445,84.473,48.828
1709252887.874,95.703,-933.105,-333.496,98.633,55.176
1709252887.878,104.492,-842.773,213.867,98.145,34.180
1709252887.882,105.469,-903.320,38.086,81.055,44.434
1709252887.886,81.055,-983.398,-297.852,68.359,-31.738
1709252887.886,67.383,-953.125,-104.980,81.055,-39.062
1709252887.890,95.215,-906.250,201.660,95.703,-2.441
1709252887.894,94.238,-946.777,-66.895,70.312,-29.785
1709252887.898,72.266,-977.539,-542.969,55.176,-22.949
1709252887.902,75.195,-968.262,-375.977,68.359,20.508
1709252887.906,84.961,-971.680,-24.902,83.008,62.012
1709252887.910,82.031,-968.262,-310.059,75.684,86.426
1709252887.913,58.594,-971.680,-825.684,48.828,23.926
1709252887.917,36.133,-974.121,-498.047,44.434,27.344
1709252887.921,57.129,-865.234,83.496,53.223,27.344
1709252887.925,67.383,-839.355,197.266,44.434,44.434
1709252887.929,59.570,-944.824,36.133,28.809,61.035
1709252887.931,58.594,-955.078,-22.461,41.504,84.473
1709252887.935,47.852,-882.324,149.902,74.219,75.195
1709252887.939,56.152,-864.746,238.770,67.871,53.223
1709252887.943,43.945,-904.785,77.637,39.062,38.086
1709252887.947,33.203,-972.656,-178.223,27.344,-13.672
1709252887.951,55.664,-972.168,-252.441,51.758,-22.461
1709252887.955,65.918,-970.215,-486.328,65.430,-5.371
1709252887.958,47.852,-968.262,-470.703,44.922,29.297
1709252887.962,34.180,-966.309,-141.113,29.297,37.109
1709252887.966,49.316,-984.375,-34.180,56.152,23.438
1709252887.970,41.992,-780.273,319.824,66.406,49.316
1709252887.974,25.391,-630.371,584.473,24.902,39.551
1709252887.991,22.461,-782.227,388.184,10.742,34.180
1709252887.995,33.203,-951.660,121.094,27.344,16.113
1709252887.999,50.781,-856.934,250.000,45.898,-12.695
1709252888.003,44.434,-680.664,576.172,35.645,0.977
1709252888.007,43.945,-853.027,387.695,35.645,-39.551
1709252888.011,52.246,-990.234,-56.152,47.852,-62.012
1709252888.015,45.410,-963.379,-0.977,37.598,-3.418
1709252888.018,41.992,-810.059,420.410,24.902,11.719
1709252888.022,34.668,-826.172,481.934,15.137,35.645
1709252888.026,23.438,-993.164,-129.883,10.742,74.219
1709252888.030,37.109,-938.477,-296.387,31.250,29.785
1709252888.034,56.641,-717.285,449.219,47.363,11.719
1709252888.036,63.477,-782.227,504.883,46.875,-55.176
1709252888.040,40.527,-990.234,43.945,25.879,-56.641
1709252888.044,16.113,-943.359,151.367,15.625,-5.859
1709252888.048,19.043,-686.035,654.297,27.832,-14.648
1709252888.052,17.578,-666.504,854.980,12.695,17.578
1709252888.056,12.695,-945.801,433.105,7.324,23.926
1709252888.060,17.090,-1000.000,141.602,15.625,13.672
1709252888.063,26.367,-772.949,620.117,16.602,27.344
1709252888.067,34.180,-749.023,841.309,2.441,-18.555
1709252888.071,47.363,-981.445,262.695,-12.207,-56.152
1709252888.075,59.082,-977.051,270.508,-11.230,-17.578
1709252888.079,62.988,-821.777,803.223,19.531,56.152
1709252888.082,53.223,-827.637,890.137,38.574,47.363
1709252888.086,38.086,-878.418,773.926,21.973,48.828
1709252888.090,28.809,-814.453,781.250,2.930,42.480
1709252888.094,37.109,-681.152,875.000,14.648,30.273
1709252888.098,42.480,-692.383,929.688,36.621,35.156
1709252888.102,25.391,-958.496,662.598,37.109,26.855
1709252888.106,13.672,-987.305,311.523,10.254,44.434
1709252888.109,12.207,-898.438,348.145,4.395,31.250
1709252888.113,26.367,-901.367,405.762,20.020,50.781
1709252888.117,39.551,-909.668,319.336,7.812,64.453
1709252888.121,25.391,-772.949,547.363,-1.953,102.051
1709252888.125,12.207,-836.914,491.211,4.395,76.172
1709252888.126,26.367,-850.098,437.012,30.762,15.625
1709252888.130,35.156,-606.934,709.473,33.691,79.102
1709252888.134,24.902,-728.516,562.012,13.672,101.562
1709252888.138,20.996,-1000.000,-166.016,14.648,-7.812
1709252888.142,26.855,-920.898,-250.000,30.273,22.949
1709252888.146,48.340,-883.301,68.359,37.598,69.824
1709252888.150,31.738,-958.984,-113.770,30.762,33.691
1709252888.153,16.602,-972.168,-544.922,11.719,16.113
1709252888.157,46.387,-976.562,-765.137,18.066,5.859
1709252888.161,45.410,-810.547,-275.391,31.250,6.348
1709252888.165,37.598,-654.297,158.691,11.719,34.180
1709252888.169,20.996,-828.613,-96.191,0.488,93.262
1709252888.171,6.836,-980.469,-356.445,12.695,41.016
1709252888.175,21.973,-759.277,-95.703,32.227,-6.348
1709252888.179,33.203,-624.512,125.000,21.973,19.043
1709252888.183,28.320,-861.328,-250.977,3.906,25.391
1709252888.187,18.555,-988.281,-641.602,16.113,-7.812
1709252888.191,28.320,-962.402,-601.074,33.691,-33.203
1709252888.195,33.691,-971.680,-595.703,32.227,-33.203
1709252888.198,10.742,-956.055,-859.863,11.719,-51.270
1709252888.202,10.742,-1000.000,-968.750,-2.930,16.602
1709252888.206,23.438,-826.172,-525.879,17.578,37.598
1709252888.210,24.414,-496.094,112.793,16.113,77.148
1709252888.214,4.883,-623.047,100.586,-8.789,70.312
1709252888.216,0.000,-829.102,-238.770,-0.977,16.602
1709252888.220,15.625,-702.148,-140.625,18.555,28.320
1709252888.224,29.785,-603.027,117.188,25.879,5.371
1709252888.228,22.461,-727.539,11.719,8.789,-8.789
1709252888.232,15.137,-759.766,-118.652,-20.996,63.477
1709252888.236,21.484,-903.320,-316.895,-17.090,28.809
1709252888.240,21.484,-986.328,-432.617,25.391,-43.945
1709252888.243,29.785,-956.055,-490.234,36.133,-37.109
1709252888.247,17.090,-987.793,-597.168,-6.836,-68.848
1709252888.251,-1.953,-892.578,-380.371,-16.602,-22.461
1709252888.255,25.879,-795.410,34.180,6.348,48.828
1709252888.259,41.504,-660.156,365.234,9.277,52.734
1709252888.261,23.438,-502.930,592.285,-8.301,56.152
1709252888.265,6.836,-599.121,502.930,-20.020,60.547
1709252888.269,9.766,-622.070,471.191,-0.977,64.941
1709252888.273,30.762,-429.199,730.957,0.977,85.449
1709252888.277,23.438,-427.246,776.855,-8.789,56.152
1709252888.281,13.184,-826.172,186.523,-16.113,8.301
1709252888.285,24.902,-1000.000,-472.656,-6.836,17.090
1709252888.288,27.832,-860.352,-421.875,13.184,29.785
1709252888.292,16.113,-581.543,183.594,0.000,95.703
1709252888.296,33.691,-675.781,165.527,-4.883,89.355
1709252888.300,42.480,-931.152,-200.684,5.859,26.367
1709252888.304,14.648,-928.223,-236.816,20.996,-34.668
1709252888.307,23.438,-822.266,-121.582,30.273,-14.648
1709252888.311,18.555,-817.383,-178.711,21.484,65.430
1709252888.315,2.930,-988.281,-549.316,17.578,51.758
1709252888.319,37.598,-784.180,-265.137,29.297,68.848
1709252888.323,41.992,-538.574,306.641,21.484,47.363
1709252888.327,1.465,-795.410,-46.875,6.836,-18.066
1709252888.331,-3.418,-1000.000,-831.055,-1.465,-0.488
1709252888.334,5.371,-851.562,-607.422,20.020,52.246
1709252888.338,11.719,-500.977,205.566,39.551,63.477
1709252888.342,16.113,-559.082,313.477,25.391,69.336
1709252888.346,17.578,-851.074,-88.379,17.090,37.598
1709252888.350,17.578,-755.371,-93.262,18.555,47.363
1709252888.366,24.902,-520.508,250.000,31.250,29.297
1709252888.370,24.414,-598.633,227.539,26.367,0.000
1709252888.374,9.277,-891.113,-234.863,7.812,30.273
1709252888.378,-0.488,-943.359,-435.059,11.230,20.508
1709252888.382,7.812,-606.445,100.098,42.969,51.758
1709252888.386,13.184,-702.148,79.590,39.062,41.992
1709252888.390,12.207,-997.070,-533.203,3.906,9.766
1709252888.393,15.625,-977.539,-534.668,7.324,-44.434
1709252888.397,10.742,-810.059,-157.715,30.273,-37.109
1709252888.401,8.789,-668.457,113.281,37.109,23.438
1709252888.405,3.418,-694.336,86.426,11.719,39.551
1709252888.409,-0.977,-803.223,-117.676,1.465,3.906
1709252888.412,8.301,-883.789,-263.184,21.484,-28.320
1709252888.416,27.344,-878.906,-293.945,43.457,-12.695
1709252888.420,33.203,-741.699,-198.730,27.832,66.895
1709252888.424,19.531,-769.043,-274.902,7.324,76.172
1709252888.428,6.836,-939.453,-573.730,23.926,40.527
1709252888.432,19.043,-969.238,-667.969,45.410,15.137
1709252888.436,25.879,-968.750,-724.609,30.273,-26.367
1709252888.439,3.418,-970.703,-889.160,-7.324,-4.395
1709252888.443,3.906,-967.773,-960.449,-5.859,41.016
1709252888.447,24.414,-983.398,-1000.000,14.160,55.664
1709252888.451,20.508,-916.504,-774.414,15.625,31.738
1709252888.455,5.859,-889.648,-553.223,9.766,28.320
1709252888.456,14.160,-986.328,-852.539,18.555,20.508
1709252888.460,32.715,-931.641,-787.109,36.133,53.711
1709252888.464,32.715,-797.852,-399.902,22.949,44.922
1709252888.468,18.555,-874.512,-458.008,7.812,15.137
1709252888.472,17.578,-981.934,-841.797,2.441,-8.789
1709252888.476,13.184,-968.262,-990.234,7.324,-14.648
1709252888.480,20.508,-969.727,-817.383,21.484,0.000
1709252888.483,19.531,-969.238,-662.598,6.348,66.895
1709252888.487,18.066,-969.238,-863.281,-12.207,18.555
1709252888.491,20.020,-983.398,-964.355,2.441,0.000
1709252888.495,17.578,-849.121,-531.738,16.602,57.617
1709252888.499,34.668,-844.727,-335.938,15.137,54.688
1709252888.501,19.531,-972.656,-651.855,-3.418,35.645
1709252888.505,6.836,-983.887,-804.688,-14.160,-11.719
1709252888.509,15.625,-919.922,-549.805,11.230,-42.969
1709252888.513,25.879,-857.910,-293.945,13.672,-1.465
1709252888.517,30.762,-948.242,-423.340,-5.859,46.387
1709252888.521,14.648,-995.605,-739.746,-20.020,44.922
1709252888.525,6.348,-922.852,-578.613,-13.184,110.352
1709252888.528,16.602,-854.492,-181.152,6.348,125.000
1709252888.532,16.602,-959.961,-512.695,-5.859,60.547
1709252888.536,1.465,-979.980,-691.406,-20.508,35.645
1709252888.540,17.578,-964.844,-392.578,-12.695,-7.812
1709252888.544,36.133,-972.656,-321.289,-11.230,-13.672
1709252888.548,22.461,-971.680,-319.824,-27.344,0.488
1709252888.552,14.160,-967.285,-278.320,-31.738,-12.207
1709252888.556,15.137,-979.004,-295.410,-22.949,-14.648
1709252888.560,23.926,-949.707,-121.094,1.953,15.137
1709252888.564,22.461,-907.715,96.191,-7.324,46.387
1709252888.568,12.695,-960.938,-226.562,-33.203,-25.391
1709252888.572,7.812,-976.074,-443.359,-19.531,-16.602
1709252888.575,0.000,-968.750,-375.000,-4.883,24.902
1709252888.579,16.113,-972.656,-311.035,-5.859,-6.836
1709252888.583,22.461,-956.543,20.508,-8.301,5.371
1709252888.587,9.766,-969.727,-50.781,-18.066,-17.578
1709252888.591,19.531,-958.984,-66.895,-1.465,-38.086
1709252888.592,39.062,-712.891,430.664,16.113,46.875
1709252888.596,32.715,-598.145,742.676,-7.812,95.703
1709252888.600,25.391,-886.230,216.309,-17.578,22.949
1709252888.604,36.621,-972.656,-130.859,4.883,20.996
1709252888.608,44.922,-701.172,385.742,1.465,55.176
1709252888.612,37.598,-779.785,460.938,-0.977,19.531
1709252888.616,23.438,-984.863,-38.086,-5.371,18.066
1709252888.619,7.324,-983.887,-618.652,-10.254,-6.836
1709252888.623,-4.395,-878.418,-356.445,4.395,-12.207
1709252888.627,-1.465,-549.805,533.691,5.371,50.781
1709252888.631,12.695,-659.180,514.648,1.953,71.289
1709252888.635,30.762,-904.297,127.441,-0.488,56.152
1709252888.651,28.320,-700.195,309.570,14.160,40.039
1709252888.655,25.879,-476.562,670.410,13.184,31.250
1709252888.659,36.621,-664.062,472.168,-6.836,41.992
1709252888.663,22.461,-928.711,15.625,1.953,42.480
1709252888.667,18.555,-798.828,64.453,6.348,46.875
1709252888.671,31.250,-796.387,201.172,7.812,10.254
1709252888.675,31.250,-966.797,-291.016,6.348,-22.461
1709252888.678,13.672,-984.375,-820.801,0.000,21.484
1709252888.682,9.766,-917.969,-508.301,10.742,44.922
1709252888.686,16.113,-670.410,124.512,17.090,49.805
1709252888.690,12.207,-638.672,254.395,0.977,12.695
1709252888.694,14.648,-745.117,54.688,-25.391,27.832
1709252888.696,14.160,-719.238,0.977,-18.066,66.895
1709252888.700,18.555,-612.305,190.430,-4.883,62.500
1709252888.704,10.254,-608.398,267.578,-11.230,15.625
1709252888.708,-4.883,-710.449,71.289,-17.090,-22.461
1709252888.712,1.465,-715.820,-1.465,-12.207,69.824
1709252888.716,17.090,-842.773,-94.238,7.324,77.148
1709252888.720,37.598,-834.473,-72.754,12.207,73.242
1709252888.723,16.602,-696.777,80.078,-7.324,101.074
1709252888.727,6.348,-804.199,-87.891,-15.137,78.613
1709252888.731,20.020,-854.004,-204.590,-3.906,39.551
1709252888.735,20.996,-978.516,-500.488,11.230,-21.973
1709252888.739,2.441,-873.535,-463.379,-5.371,-36.133
1709252888.741,-13.672,-694.824,-119.141,-32.715,13.184
1709252888.745,-6.836,-767.578,-175.293,-32.715,8.301
1709252888.749,2.441,-531.250,171.875,-12.695,29.297
1709252888.753,6.348,-249.512,648.926,-15.137,25.391
1709252888.757,12.207,-319.824,616.699,-35.645,59.082
1709252888.761,5.859,-659.668,150.879,-49.805,67.871
1709252888.765,-13.184,-687.500,-1.953,-18.066,40.527
1709252888.768,-10.742,-351.074,408.691,-0.488,25.391
1709252888.772,0.488,-358.887,547.363,-20.996,40.527
1709252888.776,-10.742,-786.621,-128.418,-34.668,45.410
1709252888.780,-19.043,-912.598,-500.977,-32.715,-9.277
1709252888.784,-1.953,-573.730,83.496,-18.066,29.297
1709252888.786,5.859,-440.430,382.324,-31.738,91.309
1709252888.790,-10.742,-777.832,-69.336,-42.480,8.301
1709252888.794,-13.672,-778.320,-247.070,-37.598,-30.762
1709252888.798,-15.625,-379.395,282.715,-27.832,-20.996
1709252888.802,-9.766,-407.715,405.273,-22.461,-28.320
1709252888.806,-20.996,-759.766,-69.336,-32.715,25.879
1709252888.810,-39.551,-910.156,-441.895,-47.852,51.758
1709252888.813,-38.574,-555.664,-59.570,-43.945,28.320
1709252888.817,-32.227,-457.031,234.863,-35.645,20.508
1709252888.821,-41.992,-907.227,-440.918,-47.852,13.184
1709252888.825,-67.383,-883.789,-706.543,-64.453,1.465
1709252888.829,-78.613,-541.992,-219.727,-71.289,-28.320
1709252888.832,-77.148,-343.262,158.203,-75.195,9.766
1709252888.836,-77.148,-514.648,2.930,-83.984,26.855
1709252888.840,-102.539,-778.320,-498.535,-108.887,-21.973
1709252888.844,-104.004,-466.309,-301.270,-108.398,80.078
1709252888.848,-84.473,-348.633,-42.969,-81.543,108.398
1709252888.852,-83.008,-632.812,-447.754,-89.355,54.199
1709252888.856,-111.328,-856.934,-866.211,-130.371,15.137
1709252888.859,-124.023,-813.965,-940.918,-133.301,-38.086
1709252888.863,-114.258,-740.234,-897.461,-115.234,58.105
1709252888.867,-130.859,-757.812,-946.289,-129.883,82.520
1709252888.871,-129.395,-552.246,-871.582,-124.023,-1.465
1709252888.875,-133.789,-535.645,-836.426,-127.441,35.156
1709252888.877,-124.512,-479.492,-756.836,-133.789,-0.488
1709252888.881,-114.258,-199.219,-413.574,-125.488,44.434
1709252888.885,-121.582,-259.766,-515.625,-126.465,32.715
1709252888.889,-139.160,-624.512,-949.707,-133.301,-30.273
1709252888.893,-125.977,-641.113,-978.516,-109.863,41.992
1709252888.897,-99.609,-517.578,-958.496,-107.422,44.922
1709252888.901,-122.559,-620.117,-974.609,-145.996,31.250
1709252888.904,-120.605,-847.656,-958.008,-144.043,6.836
1709252888.908,-101.562,-1000.000,-994.629,-125.000,9.277
1709252888.912,-106.445,-711.426,-864.746,-117.188,-2.441
1709252888.916,-99.609,-338.379,-516.113,-132.324,7.812
1709252888.920,-105.957,-574.707,-693.848,-133.789,53.223
1709252888.921,-125.488,-614.258,-803.223,-121.582,66.895
1709252888.925,-97.656,-222.656,-224.121,-116.699,78.125
1709252888.929,-82.520,-93.750,156.738,-105.957,53.711
1709252888.933,-91.309,-458.984,-247.070,-102.539,-11.719
1709252888.937,-79.102,-685.547,-606.934,-85.449,-7.324
1709252888.941,-64.941,-586.914,-416.016,-64.453,8.301
1709252888.945,-50.293,-595.215,-230.469,-75.684,-17.090
1709252888.948,-72.266,-822.266,-566.895,-98.145,-16.113
1709252888.952,-86.426,-963.867,-935.059,-83.008,18.555
1709252888.956,-56.152,-550.781,-227.539,-50.781,55.176
1709252888.960,-46.875,-98.633,712.402,-59.570,90.332
1709252888.964,-58.105,-178.223,826.172,-86.426,88.867
1709252888.966,-59.570,-408.691,508.301,-77.148,28.809
1709252888.970,-35.156,-378.906,479.492,-40.039,0.488
1709252888.974,-27.344,-353.516,562.988,-23.438,-44.922
1709252888.978,-23.438,-457.031,449.219,-22.461,-14.160
1709252888.982,-24.902,-571.777,225.098,-32.227,26.367
1709252888.986,-25.879,-775.879,-83.008,-29.297,13.184
1709252888.990,-18.066,-855.957,-159.180,-8.789,20.020
1709252888.993,-27.832,-896.484,-270.508,-10.254,31.250
1709252888.997,-23.926,-828.613,-267.090,-13.672,23.438
1709252889.001,-20.020,-700.195,-40.039,-22.461,-4.395
1709252889.005,2.441,-719.238,123.047,-18.555,6.836
1709252889.009,17.090,-813.477,130.859,-0.488,12.207
1709252889.012,-6.836,-628.418,331.543,-11.719,7.324
1709252889.016,-14.160,-507.324,569.336,-26.367,68.848
1709252889.020,11.719,-516.113,707.520,-2.930,67.871
1709252889.024,24.414,-335.938,900.879,18.555,61.523
1709252889.028,12.207,-258.301,-974.121,11.230,62.012
1709252889.032,9.766,-663.574,709.473,3.418,1.953
1709252889.036,25.879,-977.539,98.633,12.207,23.438
1709252889.039,35.156,-824.707,138.184,19.531,33.691
1709252889.043,22.949,-452.148,751.465,1.465,20.996
1709252889.047,19.043,-443.359,890.137,21.484,57.617
1709252889.051,20.996,-661.133,630.859,26.855,36.621
1709252889.055,24.414,-535.645,720.215,16.602,-22.461
1709252889.058,38.574,-287.598,-935.059,31.250,13.184
1709252889.062,37.109,-613.770,739.258,22.461,-13.672
1709252889.066,15.625,-967.773,120.117,7.812,-6.836
1709252889.070,20.508,-718.262,384.277,23.926,12.207
1709252889.074,42.480,-387.695,974.121,44.922,20.020
1709252889.078,51.758,-606.934,860.840,26.855,73.730
1709252889.082,50.293,-1000.000,36.133,16.113,30.273
1709252889.085,53.223,-834.961,125.977,39.062,17.090
1709252889.089,63.965,-370.117,910.156,63.965,82.031
1709252889.093,66.406,-416.992,997.070,58.594,80.566
1709252889.097,81.055,-667.480,892.578,41.992,91.797
1709252889.101,89.844,-600.098,963.379,56.152,77.148
1709252889.116,87.402,-416.992,-995.605,89.844,46.387
1709252889.120,97.168,-499.023,-995.605,87.891,41.016
1709252889.124,86.426,-764.160,951.660,54.688,17.090
1709252889.128,97.168,-706.543,926.758,77.148,69.824
1709252889.132,121.094,-619.629,-967.285,115.234,52.246
1709252889.136,119.629,-819.824,877.441,105.957,18.066
1709252889.140,110.352,-980.469,403.320,104.980,8.789
1709252889.143,98.145,-980.469,396.484,116.699,-44.922
1709252889.147,119.141,-821.777,819.824,124.512,-13.672
1709252889.151,133.301,-665.527,-988.770,121.094,19.531
1709252889.155,126.465,-671.875,991.211,95.703,48.340
1709252889.159,113.281,-725.586,993.164,93.750,82.031
1709252889.161,116.211,-812.500,930.664,115.723,40.527
1709252889.165,137.695,-752.441,943.848,124.512,51.758
1709252889.169,150.879,-682.129,979.980,119.141,70.801
1709252889.173,136.719,-864.746,663.574,119.629,24.902
1709252889.177,125.000,-985.352,260.742,135.254,-19.043
1709252889.181,144.531,-964.844,194.336,150.391,-15.625
1709252889.185,164.551,-970.215,190.430,122.559,5.859
1709252889.188,163.086,-971.680,11.230,111.328,34.668
1709252889.192,148.438,-971.191,-182.617,114.258,25.391
1709252889.196,155.762,-971.191,-514.160,123.535,-38.086
1709252889.200,156.738,-971.680,-341.797,129.395,-22.949
1709252889.204,141.113,-969.238,-28.320,111.328,42.969
1709252889.206,118.652,-970.215,-287.598,111.328,36.621
1709252889.210,124.512,-976.562,-299.316,132.812,-7.812
1709252889.214,143.066,-882.812,51.758,125.488,15.137
1709252889.218,119.629,-857.910,133.789,110.840,89.844
1709252889.222,123.047,-959.961,-254.395,98.145,71.289
1709252889.226,124.023,-975.098,-562.988,101.562,9.277
1709252889.230,123.047,-967.773,-444.824,120.605,-3.418
1709252889.233,135.254,-972.168,-252.441,106.445,-3.418
1709252889.237,119.141,-967.285,-612.305,86.426,40.527
1709252889.241,111.816,-979.004,-904.297,84.961,34.180
1709252889.245,121.582,-948.242,-430.664,108.398,37.598
1709252889.249,122.559,-898.438,-121.582,110.840,45.410
1709252889.251,119.141,-945.801,-413.086,86.426,32.715
1709252889.255,117.676,-999.512,-665.039,84.961,-11.230
1709252889.259,133.789,-885.254,-326.172,97.168,18.066
1709252889.263,125.977,-828.125,-124.023,84.961,-1.465
1709252889.267,100.098,-965.332,-402.832,67.871,-56.152
1709252889.271,94.238,-988.281,-717.285,71.777,12.695
1709252889.275,77.637,-934.082,-652.832,88.867,27.832
1709252889.278,103.027,-888.672,-293.945,92.773,42.969
1709252889.282,125.488,-959.961,-541.016,77.148,50.293
1709252889.286,95.215,-978.516,-685.547,60.059,31.738
1709252889.290,87.402,-960.938,-432.129,64.453,-7.324
1709252889.294,96.191,-830.078,-66.895,88.379,86.426
1709252889.297,91.797,-733.887,163.574,63.477,102.051
1709252889.301,66.895,-896.973,-162.109,33.691,30.273
1709252889.305,62.988,-983.887,-346.680,55.176,55.664
1709252889.309,78.125,-958.496,-372.070,62.500,-20.020
1709252889.313,99.609,-915.527,-308.594,51.270,-29.297
1709252889.317,87.891,-935.059,-306.641,37.109,46.875
1709252889.321,61.035,-978.027,-512.207,34.668,29.785
1709252889.324,65.430,-973.633,-607.422,49.316,-6.836
1709252889.328,82.520,-946.289,-531.250,67.871,-16.602
1709252889.332,77.148,-896.484,-243.164,58.105,-25.391
1709252889.336,51.758,-940.918,-293.945,44.434,26.367
1709252889.340,55.664,-918.457,-346.191,50.293,29.785
1709252889.341,60.547,-708.008,1.953,64.453,14.160
1709252889.345,40.527,-605.957,254.395,54.688,35.645
1709252889.349,21.484,-826.660,-45.410,37.598,51.270
1709252889.353,43.945,-878.906,-215.820,47.363,124.023
1709252889.357,48.340,-741.699,1.953,51.270,105.469
1709252889.361,45.410,-880.859,-107.422,39.062,-11.719
1709252889.365,77.637,-964.355,-503.906,45.410,12.207
1709252889.368,63.965,-984.863,-948.242,64.453,32.227
1709252889.372,30.762,-893.555,-736.816,51.270,-8.301
1709252889.376,37.598,-630.371,-78.613,31.738,-2.441
1709252889.380,22.461,-763.672,-174.805,31.738,11.719
1709252889.384,19.043,-982.910,-566.406,29.297,45.410
1709252889.386,49.805,-755.859,-336.426,50.293,83.496
1709252889.390,67.383,-570.312,-3.906,77.148,40.527
1709252889.394,73.730,-800.293,-298.340,53.223,-0.977
1709252889.398,73.242,-996.094,-729.492,38.574,43.457
1709252889.402,72.266,-930.664,-662.109,47.852,50.781
1709252889.406,62.012,-939.941,-628.906,62.500,-10.742
1709252889.410,44.922,-970.215,-858.887,43.945,-31.738
1709252889.413,33.203,-977.539,-997.559,15.137,4.883
1709252889.417,29.297,-938.477,-843.750,23.926,49.316
1709252889.421,20.996,-702.148,-332.520,42.969,86.914
1709252889.425,20.020,-657.715,-124.512,36.133,71.777
1709252889.429,24.902,-838.867,-381.836,13.672,43.945
1709252889.447,15.625,-882.324,-547.363,14.160,67.383
1709252889.451,20.020,-820.312,-437.988,35.156,40.039
1709252889.455,41.016,-812.988,-367.676,37.598,-3.906
1709252889.459,41.016,-808.594,-396.973,10.254,43.945
1709252889.463,25.879,-926.270,-565.430,0.488,8.301
1709252889.467,40.527,-992.188,-713.867,33.203,7.812
1709252889.471,55.176,-915.039,-603.027,41.016,61.035
1709252889.474,38.086,-806.152,-385.742,4.395,36.621
1709252889.478,19.531,-754.883,-250.977,-5.859,99.609
1709252889.482,33.691,-826.172,-313.965,36.621,88.867
1709252889.486,41.016,-985.352,-609.375,44.922,-1.465
1709252889.490,40.527,-912.598,-458.008,14.160,-35.645
1709252889.478,29.785,-772.949,-133.301,8.301,11.719
1709252889.482,26.367,-831.055,-133.789,7.324,65.430
1709252889.486,38.574,-675.293,114.258,12.207,59.570
1709252889.490,45.898,-382.324,589.355,15.625,80.078
1709252889.494,21.484,-511.230,564.941,17.090,72.754
1709252889.498,-7.812,-870.117,33.691,7.812,19.043
1709252889.502,10.742,-970.703,-153.809,4.395,-6.348
1709252889.505,32.715,-688.477,298.340,6.836,25.879
1709252889.509,30.762,-529.785,630.371,-0.488,81.055
1709252889.513,41.504,-845.215,87.891,2.930,92.773
1709252889.517,56.152,-979.004,-312.012,13.672,11.230
1709252889.521,46.875,-614.258,376.465,27.344,19.531
1709252889.537,40.527,-576.172,655.762,10.742,41.504
1709252889.541,28.809,-926.270,158.691,-0.977,24.414
1709252889.545,20.020,-983.887,-39.062,23.926,10.254
1709252889.549,30.762,-662.109,442.383,43.457,38.574
1709252889.553,22.949,-620.605,676.758,21.973,73.242
1709252889.557,12.207,-945.312,-65.430,2.930,10.254
1709252889.561,29.297,-1000.000,-491.211,17.578,0.000
1709252889.564,33.691,-828.125,73.730,34.668,10.742
1709252889.568,36.133,-743.652,415.039,22.461,37.109
1709252889.572,36.133,-959.961,-9.766,7.812,23.926
1709252889.576,13.184,-1000.000,-164.551,10.742,26.855
1709252889.580,24.414,-818.359,206.055,18.555,62.500
1709252889.581,36.133,-716.309,450.195,28.320,52.246
1709252889.585,10.742,-876.953,272.461,19.531,33.203
1709252889.589,-2.441,-969.238,4.883,4.395,10.254
1709252889.593,16.113,-970.703,-67.383,20.508,17.578
1709252889.597,14.648,-967.773,-23.438,20.020,35.156
1709252889.601,14.160,-972.168,-119.141,-9.277,37.109
1709252889.605,20.996,-971.680,-397.461,-14.160,22.461
1709252889.608,22.949,-968.750,-336.914,2.441,20.020
1709252889.612,40.527,-976.562,-239.258,12.695,-0.977
1709252889.616,40.527,-956.543,-359.375,4.883,25.391
1709252889.620,27.832,-930.176,-147.949,-2.441,41.016
1709252889.624,14.648,-985.352,-86.426,-0.488,6.836
1709252889.642,18.555,-902.344,66.406,18.066,26.855
1709252889.646,36.133,-729.004,360.840,32.715,-7.812
1709252889.650,17.090,-839.355,265.625,24.414,-38.574
1709252889.654,1.465,-1000.000,-125.488,25.391,-34.180
1709252889.658,12.207,-883.789,-67.871,20.020,19.043
1709252889.662,20.508,-820.801,289.062,9.277,82.520
1709252889.666,23.926,-949.707,105.469,-19.043,9.277
1709252889.669,16.602,-970.215,-316.406,-35.645,-64.941
1709252889.673,14.648,-985.840,-561.523,-7.812,3.906
1709252889.677,26.855,-860.840,-47.852,11.230,42.480
1709252889.681,20.508,-712.891,566.406,2.930,-23.438
1709252889.685,6.348,-870.605,363.281,-21.973,0.488
1709252889.671,0.977,-942.871,245.117,1.953,49.316
1709252889.675,4.883,-645.996,707.031,39.551,71.289
1709252889.679,28.320,-472.168,-956.543,17.090,66.406
1709252889.683,39.062,-780.762,660.156,4.395,35.645
1709252889.687,23.926,-995.605,183.105,12.207,33.203
1709252889.691,33.691,-957.031,197.266,26.367,33.691
1709252889.695,43.945,-958.496,218.750,27.344,19.531
1709252889.698,29.785,-970.703,-23.926,15.625,9.766
1709252889.702,10.742,-968.750,-106.445,-8.789,36.133
1709252889.706,10.254,-979.492,-6.836,1.953,-3.906
1709252889.710,5.371,-895.508,265.137,24.414,14.160
1709252889.714,9.766,-893.066,-25.391,16.602,18.066
1709252889.716,6.836,-997.559,-637.207,15.625,-22.461
1709252889.720,2.441,-927.246,-269.531,11.230,13.184
1709252889.724,10.742,-772.949,235.840,12.207,26.367
1709252889.728,28.320,-755.859,328.125,9.766,34.180
1709252889.732,29.297,-859.375,152.832,12.207,35.645
1709252889.736,14.160,-969.238,-112.305,24.902,31.250
1709252889.740,29.785,-972.168,-100.098,22.461,25.879
1709252889.743,45.410,-966.309,-168.945,35.156,1.465
1709252889.747,31.738,-973.145,-187.012,28.809,-23.438
1709252889.751,20.508,-965.820,3.418,3.418,-22.461
1709252889.755,15.625,-943.848,218.262,31.250,4.395
1709252889.759,11.230,-825.684,553.711,30.273,21.973
1709252889.762,7.812,-834.473,590.332,8.789,-5.859
1709252889.766,0.488,-974.121,383.789,2.441,-1.465
1709252889.770,27.344,-989.258,242.676,41.992,2.930
1709252889.774,32.715,-861.328,355.957,62.012,-20.508
1709252889.778,31.250,-780.273,653.809,13.672,42.969
1709252889.782,41.504,-945.801,365.723,22.949,38.574
1709252889.786,16.602,-981.934,-160.156,46.387,21.484
1709252889.789,31.738,-963.867,-132.324,54.688,18.066
1709252889.793,46.875,-972.656,281.250,54.199,-1.953
1709252889.797,23.438,-971.191,111.816,38.086,6.836
1709252889.801,29.785,-971.191,-252.441,53.711,50.293
1709252889.805,53.711,-971.191,-86.914,94.238,65.918
1709252889.806,58.105,-971.191,145.020,83.008,30.273
1709252889.810,38.086,-971.191,-82.520,59.082,23.926
1709252889.814,30.273,-971.191,-349.609,75.195,21.484
1709252889.818,48.828,-971.191,-163.574,87.891,19.531
1709252889.822,55.176,-971.191,189.453,87.402,-4.395
1709252889.826,35.645,-971.191,148.926,80.566,0.000
1709252889.830,19.531,-971.191,-447.754,54.688,38.574
1709252889.833,29.785,-971.191,-277.832,61.523,70.801
1709252889.837,31.250,-971.191,601.562,99.609,70.312
1709252889.841,25.391,-971.191,638.672,97.656,23.438
1709252889.845,12.207,-971.191,335.449,77.637,30.273
1709252889.849,4.395,-971.191,354.004,74.707,0.977
1709252889.866,20.020,-971.191,663.086,99.609,12.207
1709252889.870,26.855,-971.191,648.438,91.309,16.602
1709252889.874,18.066,-971.191,181.152,59.570,-16.113
1709252889.878,15.137,-971.191,-83.984,70.801,0.488
1709252889.882,7.812,-971.191,-21.484,91.797,8.789
1709252889.886,15.625,-971.191,-161.621,105.469,3.906
1709252889.890,16.602,-971.191,-652.832,85.938,-4.883
1709252889.893,12.695,-971.191,-931.641,77.148,38.086
1709252889.897,30.273,-971.191,-737.793,96.191,13.184
1709252889.901,33.691,-971.191,-703.613,102.539,3.418
1709252889.905,24.414,-971.191,-957.031,65.918,76.172
1709252889.909,19.043,-971.191,-911.133,32.715,54.688
1709252889.912,31.250,-971.191,-781.250,87.402,25.391
1709252889.916,62.988,-971.191,-625.488,109.863,-21.973
1709252889.920,65.918,-971.191,-493.652,54.199,24.414
1709252889.924,33.691,-971.191,-696.289,20.020,75.684
1709252889.928,33.203,-971.191,-965.332,39.551,19.043
1709252889.932,75.684,-971.191,-969.727,93.750,-14.648
1709252889.936,94.727,-971.191,-964.844,69.336,-11.719
1709252889.939,95.215,-971.191,-972.656,31.738,41.016
1709252889.943,94.238,-971.191,-971.191,57.617,17.090
1709252889.947,111.816,-971.191,-971.191,104.980,24.902
1709252889.951,126.465,-971.680,-971.680,125.000,20.508
1709252889.955,124.512,-969.238,-968.750,106.934,-7.812
1709252889.956,115.723,-968.262,-964.844,97.656,44.434
1709252889.960,126.465,-983.887,-990.723,114.746,35.645
1709252889.964,133.301,-862.793,-802.734,125.000,34.668
1709252889.968,139.160,-842.773,-675.293,120.117,39.551
1709252889.972,128.418,-968.750,-901.855,96.191,7.812
1709252889.976,116.699,-984.375,-979.980,91.797,-5.859
1709252889.980,120.117,-927.246,-664.062,93.262,-14.160
1709252889.983,109.375,-732.910,-84.961,76.660,64.453
1709252889.987,92.285,-844.238,-275.879,63.965,56.152
1709252889.991,80.078,-921.387,-487.305,44.922,14.160
1709252889.995,90.820,-400.879,488.281,41.504,55.176
1709252889.999,103.516,-61.523,-927.734,42.480,74.707
1709252890.001,101.074,-359.375,858.887,28.320,74.219
1709252890.005,89.844,-511.719,735.352,15.137,51.758
1709252890.009,89.355,-187.500,930.176,23.438,28.809
1709252890.013,90.820,-91.309,-978.516,29.297,-5.371
1709252890.017,75.684,-390.625,827.637,6.836,12.695
1709252890.021,60.547,-632.324,404.785,-12.207,26.367
1709252890.025,67.871,-541.016,349.121,13.672,39.062
1709252890.028,61.035,-272.461,760.254,31.738,41.016
1709252890.032,63.965,-569.824,437.012,-11.230,10.742
1709252890.036,71.777,-656.738,55.176,-47.852,27.344
1709252890.040,44.922,-314.453,383.789,-32.715,58.105
1709252890.044,62.500,-109.375,758.789,4.395,53.711
1709252890.046,73.730,-59.082,850.586,-1.465,11.719
1709252890.050,55.176,-83.008,693.359,-32.715,80.566
1709252890.054,53.711,-137.695,519.531,-33.691,116.211
1709252890.058,59.570,-311.035,287.598,-9.277,35.645
1709252890.062,68.359,-292.480,229.004,-8.301,5.371
1709252890.066,65.430,-390.137,41.016,-22.461,22.461
1709252890.070,48.828,-614.258,-389.648,-26.367,19.043
1709252890.073,51.758,-681.152,-517.578,-18.066,35.156
1709252890.077,48.340,-599.121,-417.480,-19.531,41.992
1709252890.081,27.344,-194.336,20.996,-39.551,29.785
1709252890.085,27.832,-229.980,38.574,-56.641,40.527
1709252890.089,40.527,-252.930,-39.551,-28.320,84.473
1709252890.106,43.457,32.227,300.781,8.301,72.266
1709252890.110,22.461,98.145,395.020,-16.113,24.414
1709252890.114,9.277,-237.793,-122.559,-41.016,32.227
1709252890.118,20.020,-490.234,-651.855,-28.320,34.668
1709252890.122,33.691,-265.137,-460.938,-7.324,15.137
1709252890.126,37.598,-227.539,-314.453,-0.488,11.719
1709252890.130,24.902,-574.219,-708.984,-24.902,34.668
1709252890.133,7.324,-987.793,-1000.000,-26.367,39.551
1709252890.137,22.949,-724.609,-849.609,13.672,14.648
1709252890.141,20.996,-25.391,-203.613,3.906,71.289
1709252890.145,8.301,-110.840,-144.043,-41.992,84.473
1709252890.149,18.555,-454.102,-653.809,-20.020,29.785
1709252890.136,29.785,-269.531,-528.809,27.832,39.062
1709252890.140,44.922,21.484,-49.805,13.672,50.781
1709252890.144,30.762,-175.781,-220.703,-15.137,11.230
1709252890.148,20.996,-499.512,-786.621,-27.832,12.207
1709252890.152,28.809,-482.422,-907.227,-14.648,-15.625
1709252890.156,14.648,-438.965,-818.359,-3.418,-41.016
1709252890.160,10.254,-535.156,-893.555,-9.766,34.180
1709252890.163,4.883,-596.680,-976.562,-16.602,60.059
1709252890.167,5.371,-592.773,-980.469,-25.391,-35.645
1709252890.171,22.949,-476.074,-928.711,-29.785,-22.949
1709252890.175,19.531,-645.508,-903.320,-34.668,47.852
1709252890.179,4.883,-953.125,-971.191,-41.504,-16.113
1709252890.182,9.766,-674.316,-974.609,-45.898,-18.066
1709252890.186,7.324,-367.188,-784.180,-23.926,23.926
1709252890.190,-1.465,-240.234,-510.254,-11.230,49.805
1709252890.194,-2.441,-210.938,-495.117,-21.484,66.895
1709252890.198,-2.441,-399.414,-813.477,-20.020,7.324
1709252890.202,0.977,-573.730,-985.840,10.254,33.203
1709252890.206,11.719,-755.371,-960.449,8.301,58.594
1709252890.209,34.180,-650.391,-970.703,-19.531,-14.648
1709252890.213,24.414,-513.672,-964.844,-15.137,-49.805
1709252890.217,18.066,-585.449,-990.234,-13.672,-24.902
1709252890.221,43.457,-348.145,-895.996,-6.348,34.180
1709252890.225,23.438,-187.500,-832.031,-13.184,31.738
1709252890.227,-20.508,-423.828,-958.496,-43.457,32.227
1709252890.231,-0.977,-719.727,-980.957,-50.781,22.461
1709252890.235,21.973,-592.773,-959.961,3.906,3.906
1709252890.239,6.348,-206.543,-867.676,10.742,56.152
1709252890.243,-4.395,-368.164,-895.020,-54.688,29.297
1709252890.247,-10.254,-784.668,-975.098,-54.199,-23.926
1709252890.251,-7.324,-749.512,-989.258,-21.973,18.066
1709252890.254,-2.441,-349.121,-828.613,-13.184,49.805
1709252890.258,-5.859,-247.070,-762.695,-25.391,62.500
1709252890.262,-27.344,-737.793,-958.496,-45.898,35.156
1709252890.266,-17.578,-818.848,-988.770,-36.133,-11.230
1709252890.270,23.926,-288.574,-900.391,-32.227,-2.441
1709252890.286,29.785,-329.102,-905.273,-42.969,-1.953
1709252890.290,-4.395,-653.809,-980.469,-43.457,6.348
1709252890.294,-9.766,-640.137,-969.727,-27.344,25.391
1709252890.298,22.461,-534.180,-970.215,-5.371,5.371
1709252890.302,26.367,-539.062,-971.680,0.000,42.969
1709252890.306,16.602,-861.816,-970.703,-11.230,101.562
1709252890.310,4.395,-960.449,-971.680,-19.043,62.500
1709252890.313,5.371,-543.457,-970.215,-4.395,67.383
1709252890.317,24.902,-550.781,-965.820,11.230,56.152
1709252890.321,13.672,-944.824,-958.496,12.207,21.973
1709252890.325,-7.812,-891.602,-992.188,-3.906,78.125
1709252890.329,12.207,-642.090,-888.672,-8.789,103.516
1709252890.331,41.016,-596.680,-666.504,24.902,73.242
1709252890.335,30.273,-766.602,-695.312,22.461,19.531
1709252890.339,2.441,-898.438,-836.914,-18.066,13.184
1709252890.343,5.859,-830.078,-683.594,-5.859,25.879
1709252890.347,30.762,-658.691,-290.039,20.020,36.133
1709252890.351,30.762,-782.715,-256.836,-3.418,43.945
1709252890.355,12.695,-956.055,-628.906,-18.066,-8.789
1709252890.358,16.602,-966.309,-665.527,-20.996,2.930
1709252890.362,40.527,-977.051,-507.812,-6.836,10.742
1709252890.366,44.434,-930.176,-473.633,0.977,27.832
1709252890.370,20.996,-830.078,-212.891,-17.578,38.574
1709252890.374,12.207,-818.359,-38.086,-32.227,41.992
1709252890.376,43.945,-730.957,207.520,3.906,42.969
1709252890.380,47.852,-529.785,605.469,22.949,-9.277
1709252890.384,34.668,-573.730,649.902,-8.789,-0.977
1709252890.388,32.715,-879.883,208.008,-20.020,15.625
1709252890.392,29.297,-860.352,142.578,10.254,78.125
1709252890.396,42.969,-780.762,310.059,23.926,9.766
1709252890.400,46.875,-950.195,40.527,-0.488,-49.316
1709252890.403,16.113,-968.262,-370.117,-4.395,14.160
1709252890.407,0.488,-983.887,-665.527,7.324,40.039
1709252890.411,26.367,-896.973,-331.543,27.832,1.953
1709252890.415,36.133,-654.785,256.348,30.762,7.324
1709252890.419,26.855,-783.203,-0.488,8.301,34.668
1709252890.421,19.531,-1000.000,-462.891,2.930,-3.906
1709252890.425,25.391,-776.855,-39.062,27.344,1.953
1709252890.429,36.621,-538.086,412.598,39.062,29.785
1709252890.433,24.414,-783.203,96.680,12.695,24.902
1709252890.437,29.785,-991.699,-320.312,21.973,37.598
1709252890.441,69.824,-963.867,-315.430,70.312,21.484
1709252890.445,69.336,-969.238,-134.277,41.504,32.227
1709252890.448,18.555,-964.844,-343.262,2.930,68.848
1709252890.452,-7.812,-981.445,-611.816,-27.344,52.246
1709252890.456,-5.859,-946.777,-123.047,-47.363,-14.160
1709252890.460,-16.113,-761.719,513.184,-53.711,-33.203
1709252890.464,-30.762,-843.262,547.852,-72.266,-16.113
1709252890.467,-62.012,-1000.000,243.164,-89.355,0.977
1709252890.471,-75.684,-830.078,509.277,-103.516,35.156
1709252890.475,-57.129,-550.781,951.172,-78.613,58.105
1709252890.479,-65.918,-625.488,989.258,-78.613,46.387
1709252890.483,-77.148,-758.301,852.539,-117.676,-0.488
1709252890.487,-71.289,-808.105,689.941,-127.441,36.133
1709252890.491,-65.430,-795.898,745.117,-97.168,18.066
1709252890.494,-69.824,-859.375,703.125,-91.797,15.137
1709252890.498,-89.844,-738.281,761.230,-114.746,92.285
1709252890.502,-95.215,-595.215,898.926,-103.516,50.781
1709252890.506,-81.055,-559.082,935.547,-73.242,27.832
1709252890.510,-59.082,-366.699,-999.023,-50.781,58.594
1709252890.512,-45.898,-353.516,998.535,-50.293,50.293
1709252890.516,-45.410,-609.375,752.930,-42.480,-7.324
1709252890.520,-40.527,-758.789,454.102,-16.113,6.836
1709252890.524,-11.230,-572.754,635.254,1.953,29.297
1709252890.528,-4.395,-393.555,889.648,2.441,43.945
1709252890.532,-19.531,-751.953,379.883,-12.695,-4.395
1709252890.536,-5.371,-1000.000,-278.809,-6.348,25.391
1709252890.539,14.160,-914.551,-275.879,16.602,93.262
1709252890.543,13.672,-633.789,243.652,30.762,20.996
1709252890.547,-2.441,-547.852,516.113,28.809,23.926
1709252890.551,-8.301,-744.629,317.383,18.555,36.133
1709252890.555,9.277,-493.164,599.609,39.062,63.477
1709252890.556,18.555,-161.621,-938.477,46.387,70.801
1709252890.560,10.742,-421.387,875.000,24.902,8.301
1709252890.564,13.184,-819.336,291.992,12.695,9.277
1709252890.568,22.461,-666.992,306.641,33.691,41.016
1709252890.572,32.227,-385.254,761.230,56.152,31.738
1709252890.576,20.020,-667.969,536.621,31.738,15.625
1709252890.580,6.348,-994.141,-444.336,11.230,11.230
1709252890.583,18.066,-925.781,-632.812,36.621,11.230
1709252890.587,16.602,-610.352,195.312,49.316,-14.160
1709252890.591,16.113,-557.129,428.223,41.016,-15.137
1709252890.595,8.301,-845.703,35.156,33.691,-6.348
1709252890.599,0.977,-888.672,-163.086,47.852,21.484
1709252890.616,28.809,-538.086,283.691,67.871,46.387
1709252890.620,43.945,-480.957,500.488,53.711,38.574
1709252890.624,25.879,-718.750,134.766,28.809,66.406
1709252890.628,15.137,-773.926,-119.141,31.250,36.133
1709252890.632,21.973,-581.543,100.586,58.594,-2.441
1709252890.636,34.180,-647.949,113.281,51.758,41.992
1709252890.640,19.531,-958.496,-409.668,29.297,38.574
1709252890.643,10.742,-875.977,-522.461,30.273,-0.977
1709252890.647,31.250,-752.441,-352.539,43.945,4.395
1709252890.651,41.504,-812.500,-350.586,53.223,27.344
1709252890.655,42.969,-749.023,-329.102,34.180,58.594
1709252890.659,28.809,-661.133,-287.109,18.555,34.668
1709252890.661,20.996,-701.660,-341.309,28.809,14.648
1709252890.665,41.016,-537.109,-111.816,51.270,38.086
1709252890.669,44.434,-400.391,76.660,53.223,16.113
1709252890.673,23.926,-534.180,-156.250,10.742,7.324
1709252890.677,10.742,-676.270,-424.805,-9.766,74.707
1709252890.681,27.344,-674.805,-419.434,14.160,102.051
1709252890.685,35.645,-659.668,-426.758,18.066,55.176
1709252890.688,5.859,-712.402,-572.754,-1.465,21.484
1709252890.692,1.953,-865.234,-808.105,-2.930,19.531
1709252890.696,35.645,-958.008,-974.121,16.113,4.395
1709252890.700,45.898,-560.059,-462.402,24.902,73.242
1709252890.704,26.367,-492.676,-192.383,1.953,76.172
1709252890.706,25.879,-918.945,-770.996,-2.441,-39.551
1709252890.710,31.250,-878.906,-875.488,13.672,-39.062
1709252890.714,30.273,-447.266,-201.660,21.484,20.508
1709252890.718,25.391,-277.832,208.008,4.395,54.688
1709252890.722,9.277,-555.176,-93.262,-15.625,80.078
1709252890.726,10.742,-806.641,-478.027,4.395,57.617
1709252890.730,25.391,-772.949,-482.910,24.902,-38.086
1709252890.733,32.227,-626.465,-229.492,20.996,-39.551
1709252890.737,20.996,-759.766,-472.656,-5.371,62.500
1709252890.741,9.766,-940.430,-858.398,-18.555,59.082
1709252890.745,23.926,-511.719,-149.414,7.812,48.828
1709252890.749,41.992,-193.359,533.691,28.320,57.617
1709252890.766,41.992,-425.781,323.730,30.762,60.547
1709252890.770,29.785,-601.074,-78.125,2.441,75.195
1709252890.774,30.273,-552.246,-139.160,-0.977,58.105
1709252890.778,57.617,-587.402,-186.035,27.832,18.066
1709252890.782,60.059,-795.898,-591.797,29.297,53.711
1709252890.786,49.805,-961.426,-952.637,28.320,66.895
1709252890.790,65.430,-946.777,-965.820,52.246,0.000
1709252890.793,78.125,-892.090,-962.402,72.266,-20.508
1709252890.797,89.355,-953.613,-964.355,66.406,15.137
1709252890.801,93.750,-937.988,-980.957,58.105,33.691
1709252890.805,84.961,-738.281,-923.828,74.219,61.523
1709252890.809,91.797,-614.258,-752.930,106.934,54.688
1709252890.796,101.074,-537.109,-570.801,103.027,64.453
1709252890.800,93.262,-556.641,-626.465,87.402,101.074
1709252890.804,98.145,-738.281,-875.488,94.238,39.062
1709252890.808,102.051,-732.910,-851.074,95.215,-4.883
1709252890.812,97.656,-546.875,-542.480,95.215,28.809
1709252890.816,82.520,-695.312,-651.855,82.031,18.555
1709252890.820,82.031,-1000.000,-999.512,65.918,-7.324
1709252890.823,90.820,-922.852,-952.148,85.938,6.836
1709252890.827,88.867,-599.609,-613.770,89.355,2.930
1709252890.831,73.242,-445.312,-396.484,58.105,46.875
1709252890.835,67.383,-676.758,-722.168,41.504,20.508
1709252890.839,84.473,-955.078,-986.328,47.852,-71.289
1709252890.842,78.125,-905.273,-950.684,54.199,-72.266
1709252890.846,57.129,-542.480,-666.504,41.504,32.715
1709252890.850,58.105,-628.418,-687.988,41.016,63.965
1709252890.854,62.500,-834.473,-972.168,49.805,66.406
1709252890.858,52.246,-534.180,-678.223,55.664,52.734
1709252890.862,51.270,-568.359,-649.902,48.340,11.230
1709252890.866,45.898,-881.348,-954.590,33.203,-7.812
1709252890.869,36.133,-988.770,-979.980,23.926,-14.648
1709252890.873,38.086,-843.750,-958.008,34.180,12.695
1709252890.877,42.969,-447.754,-666.016,52.246,24.414
1709252890.881,42.480,-584.473,-691.406,29.297,46.875
1709252890.885,30.273,-975.586,-1000.000,10.742,17.090
1709252890.886,42.969,-740.723,-941.406,32.715,12.207
1709252890.890,62.988,-431.641,-734.375,40.527,24.414
1709252890.894,57.617,-623.535,-801.270,30.762,-13.184
1709252890.898,46.875,-865.234,-987.793,20.020,9.277
1709252890.902,47.852,-750.000,-968.262,25.391,27.832
1709252890.906,58.105,-699.707,-969.238,39.062,17.090
1709252890.910,59.082,-849.121,-958.008,35.645,40.039
1709252890.913,41.016,-949.219,-977.051,23.438,39.062
1709252890.917,34.180,-773.438,-905.762,5.859,53.223
1709252890.921,50.781,-434.570,-337.402,20.508,73.730
1709252890.925,55.176,-356.934,24.414,35.156,38.086
1709252890.929,48.340,-647.461,-312.500,13.672,27.344
1709252890.932,33.691,-708.984,-493.652,-9.277,81.543
1709252890.936,37.109,-486.328,-118.652,0.000,86.426
1709252890.940,54.199,-526.367,23.438,15.137,39.551
1709252890.944,36.621,-559.082,-29.785,-8.789,57.617
1709252890.948,21.973,-627.441,-146.973,-13.672,40.039
1709252890.952,38.574,-793.457,-339.355,14.160,35.645
1709252890.956,56.152,-931.152,-547.852,29.297,30.273
1709252890.959,44.434,-888.672,-572.266,19.043,-43.945
1709252890.963,34.180,-765.625,-403.809,10.742,8.789
1709252890.967,50.781,-843.750,-434.082,28.809,57.129
1709252890.971,56.152,-709.961,-197.754,40.039,19.043
1709252890.975,42.969,-446.289,208.008,23.438,62.500
1709252890.992,27.344,-589.844,109.375,15.137,101.074
1709252890.996,24.414,-898.926,-397.949,13.672,34.180
1709252891.000,36.133,-972.656,-592.773,26.855,-19.531
1709252891.004,42.480,-787.598,-288.086,29.785,19.531
1709252891.008,30.273,-806.152,-254.883,2.441,69.824
1709252891.012,22.461,-969.238,-735.352,1.465,58.594
1709252891.016,66.406,-991.699,-1000.000,81.543,-37.109
1709252891.019,48.828,-880.371,-555.664,66.406,-23.926
1709252891.023,-23.438,-811.523,-127.930,-27.832,42.969
1709252891.027,-45.898,-958.496,-276.855,-55.176,-26.855
1709252891.031,-49.316,-960.938,-68.848,-57.617,-26.855
1709252891.035,-65.918,-775.391,535.645,-69.824,-17.578
1709252891.036,-94.727,-653.809,893.066,-109.863,-8.301
1709252891.040,-124.512,-835.449,812.012,-138.184,28.809
1709252891.044,-158.691,-809.082,839.355,-159.180,49.316
1709252891.048,-161.133,-510.742,-996.094,-149.902,40.527
1709252891.052,-145.996,-534.180,-984.375,-153.809,40.039
1709252891.056,-159.668,-857.910,708.008,-178.223,49.805
1709252891.060,-170.898,-1000.000,231.445,-181.152,2.930
1709252891.063,-146.484,-909.180,345.215,-157.715,22.949
1709252891.067,-122.559,-825.684,677.246,-143.555,78.613
1709252891.071,-115.723,-947.266,48.340,-150.879,54.688
1709252891.075,-98.633,-996.094,-501.953,-134.766,-2.441
1709252891.079,-64.941,-921.875,-113.281,-87.402,-0.488
1709252891.082,-74.707,-885.742,87.402,-64.453,24.414
1709252891.086,-82.031,-964.844,-117.676,-73.242,31.250
1709252891.090,-67.871,-974.609,-440.918,-84.473,42.969
1709252891.094,-64.941,-968.262,-516.113,-67.383,24.902
1709252891.098,-41.016,-971.680,-493.652,-37.109,-14.160
1709252891.102,-32.227,-971.191,-677.246,-30.273,-20.508
1709252891.106,-41.504,-971.191,-852.539,-42.969,43.457
1709252891.109,-25.879,-971.191,-758.789,-36.133,91.797
1709252891.113,7.324,-971.191,-676.758,9.277,54.199
1709252891.117,11.719,-972.168,-802.246,7.812,16.602
1709252891.121,2.441,-965.820,-644.531,-11.719,6.836
1709252891.125,0.977,-976.074,-541.504,14.160,17.578
1709252891.126,8.301,-954.590,-391.113,32.715,6.348
1709252891.130,16.602,-779.297,43.457,20.508,26.855
1709252891.134,17.578,-780.762,203.125,8.301,64.941
1709252891.138,19.531,-961.426,-176.758,1.953,23.438
1709252891.142,35.645,-957.031,-304.199,27.344,-0.488
1709252891.146,46.387,-946.777,-82.031,39.062,18.555
1709252891.150,24.414,-975.098,-146.973,24.414,49.316
1709252891.153,20.508,-959.961,-479.492,22.461,44.434
1709252891.157,47.363,-1000.000,-867.676,39.551,25.879
1709252891.161,51.758,-818.359,-440.918,49.805,41.016
1709252891.165,37.598,-677.246,127.441,39.062,42.480
1709252891.169,31.738,-922.852,-288.574,24.414,45.898
1709252891.171,32.227,-958.496,-518.555,14.160,57.617
1709252891.175,39.551,-673.340,-18.555,38.086,32.715
1709252891.179,54.199,-368.164,496.582,48.340,50.293
1709252891.183,51.758,-636.230,139.648,31.738,46.387
1709252891.187,25.879,-990.723,-512.695,9.277,-15.625
1709252891.191,29.297,-955.566,-556.641,8.789,-42.969
1709252891.195,57.617,-699.707,-156.738,32.227,46.875
1709252891.198,45.410,-725.098,-265.137,21.973,47.363
1709252891.202,22.949,-959.961,-777.344,-6.348,21.484
1709252891.206,31.250,-688.965,-286.133,12.695,40.039
1709252891.210,41.504,-343.750,444.824,32.227,12.207
1709252891.214,40.527,-409.180,534.668,20.020,-7.324
1709252891.217,37.109,-565.918,286.621,6.836,21.973
1709252891.221,41.504,-584.961,191.895,6.348,53.711
1709252891.225,40.039,-481.934,370.117,32.227,34.180
1709252891.229,38.086,-480.957,404.785,36.621,49.805
1709252891.233,43.945,-631.348,123.047,15.625,18.066
1709252891.237,42.969,-808.594,-187.012,13.672,-4.883
1709252891.241,37.109,-764.648,-146.484,26.855,52.734
1709252891.244,36.133,-798.340,-125.977,26.855,76.172
1709252891.248,16.602,-851.562,-295.410,9.277,-18.066
1709252891.252,8.301,-655.273,-141.113,-0.488,-31.738
1709252891.256,39.062,-536.621,90.332,25.879,12.207
1709252891.260,49.805,-270.996,504.395,32.715,43.457
1709252891.261,37.109,-173.828,639.648,9.766,13.672
1709252891.265,17.578,-316.406,387.207,-7.812,38.574
1709252891.269,21.973,-463.867,119.141,4.395,24.414
1709252891.273,49.316,-310.059,262.695,31.738,0.977
1709252891.277,40.039,-227.539,396.973,12.695,22.461
1709252891.281,22.949,-656.738,-240.234,-2.441,-32.227
1709252891.285,33.691,-929.688,-830.078,6.348,-18.066
1709252891.288,36.133,-905.273,-938.477,9.277,-4.395
1709252891.292,35.645,-456.543,-413.086,6.836,34.180
1709252891.296,39.062,-266.602,-58.105,-0.977,61.523
1709252891.300,34.180,-505.859,-345.703,-1.465,27.344
1709252891.304,42.480,-375.000,-267.578,19.043,-5.859
1709252891.306,46.387,-3.418,230.957,19.531,45.898
1709252891.310,38.086,-162.598,92.773,-12.695,33.203
1709252891.314,39.062,-573.730,-549.316,-11.230,14.648
1709252891.318,29.785,-495.117,-622.559,14.160,24.414
1709252891.322,41.016,-163.574,-153.809,16.113,44.434
1709252891.326,29.297,-377.930,-325.195,-2.930,68.359
1709252891.330,13.184,-913.086,-918.457,-14.648,32.227
1709252891.333,22.949,-835.449,-1000.000,-6.348,60.059
1709252891.337,36.621,-341.797,-583.496,5.859,83.496
1709252891.341,47.363,-346.191,-408.691,-5.371,53.223
1709252891.345,32.715,-770.020,-887.207,-30.762,18.555
1709252891.349,33.203,-716.797,-996.094,-24.902,17.090
1709252891.366,46.875,-428.223,-603.027,6.348,17.578
1709252891.370,38.574,-382.324,-333.008,-9.766,21.484
1709252891.374,25.391,-597.168,-532.227,-54.688,10.742
1709252891.378,30.762,-740.723,-760.254,-40.039,-24.902
1709252891.382,40.527,-541.504,-460.449,-7.324,-0.488
1709252891.386,46.875,-632.324,-385.254,-17.090,29.297
1709252891.390,43.457,-976.562,-873.535,-60.059,2.441
1709252891.393,45.410,-876.465,-905.273,-63.965,-10.742
1709252891.397,48.828,-663.086,-578.125,-8.789,10.742
1709252891.401,12.695,-458.984,-194.824,-16.113,70.312
1709252891.405,10.254,-477.539,-144.043,-43.945,131.836
1709252891.409,34.180,-710.938,-524.902,-34.180,23.926
1709252891.412,39.062,-670.410,-598.145,-11.230,47.852
1709252891.416,41.016,-609.863,-485.352,18.066,92.773
1709252891.420,30.273,-588.379,-454.590,-3.418,33.203
1709252891.424,27.832,-640.625,-499.512,-27.344,71.777
1709252891.428,28.809,-883.301,-823.730,-14.648,6.836
1709252891.432,46.387,-969.727,-948.242,21.484,-34.668
1709252891.436,52.734,-960.938,-895.020,27.832,19.043
1709252891.439,41.016,-965.332,-943.848,-2.930,27.832
1709252891.443,37.598,-977.051,-977.051,-5.859,-0.977
1709252891.447,32.227,-965.332,-976.074,14.648,4.395
1709252891.451,52.734,-808.594,-808.105,25.879,64.453
1709252891.455,54.199,-865.234,-842.285,16.113,34.180
1709252891.457,21.973,-988.770,-992.188,-10.254,13.184
1709252891.461,37.109,-970.215,-965.820,-5.371,3.906
1709252891.465,58.105,-947.266,-968.750,18.555,4.395
1709252891.469,56.641,-938.965,-969.727,12.695,-30.273
1709252891.473,40.039,-972.656,-970.215,9.766,-80.566
1709252891.477,31.250,-970.215,-967.285,18.066,12.207
1709252891.481,38.086,-980.469,-990.234,31.738,6.836
1709252891.484,32.715,-897.949,-850.586,35.156,-30.273
1709252891.488,34.180,-902.832,-842.285,32.227,0.000
1709252891.492,28.320,-980.469,-959.961,37.109,18.066
1709252891.496,50.781,-701.660,-476.562,40.039,40.039
1709252891.500,70.801,-418.945,137.207,36.621,24.902
1709252891.501,49.805,-537.598,143.066,27.832,46.875
1709252891.505,35.156,-602.539,62.012,20.996,73.242
1709252891.509,57.129,-425.293,340.332,48.340,23.926
1709252891.513,78.125,-203.125,787.109,63.477,48.828
1709252891.517,49.805,-371.094,712.402,37.598,37.598
1709252891.521,28.320,-725.098,174.805,24.414,-47.363
1709252891.525,47.852,-679.199,110.840,48.340,-8.301
1709252891.528,50.781,-395.020,570.312,87.402,31.250
1709252891.532,26.367,-613.281,450.684,60.547,85.938
1709252891.536,34.180,-719.727,202.148,33.691,65.918
1709252891.540,35.645,-234.863,716.797,59.570,24.414
1709252891.544,48.828,-1.465,-967.773,91.309,23.438
1709252891.547,53.223,79.102,983.398,82.520,43.945
1709252891.551,41.016,90.332,996.094,36.133,100.098
1709252891.555,35.156,-68.359,-998.047,29.297,58.105
1709252891.559,40.039,-78.125,988.770,64.453,45.410
1709252891.563,55.664,11.719,-984.375,65.430,38.574
1709252891.567,41.992,-214.844,915.039,51.758,31.738
1709252891.571,24.902,-435.547,697.754,46.387,22.461
1709252891.574,46.875,-520.020,521.484,66.406,55.176
1709252891.578,52.246,-648.926,337.891,76.172,83.008
1709252891.582,31.738,-326.660,591.797,58.594,38.574
1709252891.586,25.879,-270.996,666.504,70.312,-22.461
1709252891.590,21.973,-382.324,527.344,99.121,-5.371
1709252891.591,24.414,-78.613,820.312,101.074,43.945
1709252891.595,31.250,70.801,-946.289,74.219,-6.836
1709252891.599,35.156,-197.754,849.609,42.969,-25.391
1709252891.603,20.996,-450.684,430.176,56.152,-2.441
1709252891.607,21.973,-217.285,658.203,89.355,20.020
1709252891.611,34.180,-80.566,986.328,85.938,68.359
1709252891.615,28.809,-486.816,590.820,76.172,23.438
1709252891.618,20.020,-937.500,-135.742,67.383,-4.883
1709252891.622,37.109,-643.555,117.676,83.984,41.504
1709252891.626,53.223,-117.676,967.285,101.562,-0.977
1709252891.630,30.762,-369.141,868.652,86.914,7.812
1709252891.634,29.297,-663.086,386.230,58.105,64.453
1709252891.636,29.785,-400.879,542.480,76.660,33.203
1709252891.640,46.875,-94.238,964.355,111.816,56.641
1709252891.644,40.039,-213.867,948.242,101.562,89.844
1709252891.648,22.461,-540.039,583.496,79.590,65.918
1709252891.652,41.016,-613.281,367.188,100.098,14.160
1709252891.656,46.387,-677.246,384.277,130.859,-21.973
1709252891.660,42.969,-875.000,77.148,107.422,27.832
1709252891.663,44.434,-979.492,-320.312,71.777,60.547
1709252891.667,20.020,-953.613,-191.406,81.055,-10.742
1709252891.671,13.672,-763.672,215.820,110.352,-7.812
1709252891.675,36.621,-680.664,349.121,104.004,9.766
1709252891.679,37.598,-828.613,126.953,75.195,14.160
1709252891.682,33.691,-962.402,-160.645,52.246,-0.977
1709252891.686,38.086,-973.633,-292.480,75.684,32.227
1709252891.690,51.758,-966.797,-368.164,93.750,14.160
1709252891.694,34.180,-972.656,-419.434,64.453,0.977
1709252891.698,0.488,-971.191,-492.676,51.270,61.035
1709252891.702,10.742,-971.191,-658.203,61.523,84.961
1709252891.706,62.988,-971.191,-897.461,93.750,29.297
1709252891.709,62.988,-971.191,-840.820,64.941,18.555
1709252891.713,29.297,-971.191,-727.051,15.137,26.855
1709252891.717,32.715,-971.191,-880.371,44.922,17.578
1709252891.721,35.645,-971.191,-755.371,62.988,18.555
1709252891.725,28.320,-971.191,-542.969,48.828,45.898
1709252891.742,24.902,-971.191,-749.023,46.875,58.594
1709252891.746,37.598,-971.191,-986.816,43.457,13.184
1709252891.750,49.316,-971.191,-953.613,56.152,9.766
1709252891.754,43.457,-971.191,-924.316,48.340,29.785
1709252891.758,37.598,-971.191,-969.238,36.621,-10.254
1709252891.762,21.484,-971.191,-974.121,35.645,-34.668
1709252891.766,34.668,-971.191,-968.750,43.945,21.484
1709252891.769,51.270,-971.191,-971.680,70.312,48.828
1709252891.773,38.574,-971.191,-971.191,52.246,48.828
1709252891.777,40.527,-971.191,-971.191,39.062,2.441
1709252891.781,57.129,-971.191,-971.191,57.129,13.184
1709252891.785,68.848,-971.191,-971.191,68.848,-5.371
1709252891.775,78.125,-971.191,-971.191,69.336,-49.316
1709252891.779,33.691,-971.191,-971.191,50.293,13.184
1709252891.783,10.742,-971.191,-971.191,42.480,50.781
1709252891.787,28.809,-971.191,-971.191,76.172,21.484
1709252891.791,46.875,-971.191,-971.191,73.730,-4.883
1709252891.795,49.316,-971.191,-971.191,41.016,33.691
1709252891.799,35.156,-971.191,-971.191,52.246,70.312
1709252891.802,30.762,-971.191,-971.191,93.262,4.395
1709252891.806,26.855,-971.191,-971.191,78.613,-54.688
1709252891.810,22.949,-971.191,-971.191,39.062,10.254
1709252891.814,36.133,-971.191,-971.191,50.781,59.082
1709252891.818,41.016,-971.191,-971.191,56.641,34.180
1709252891.831,45.410,-971.191,-971.191,62.500,20.508
1709252891.835,40.527,-971.191,-971.191,53.223,40.527
1709252891.839,30.273,-971.191,-971.191,20.996,20.508
1709252891.843,55.176,-971.191,-971.191,32.715,-19.043
1709252891.847,68.848,-971.191,-971.191,50.293,53.711
1709252891.851,49.316,-971.191,-971.191,38.086,55.176
1709252891.855,23.926,-971.191,-971.191,40.527,-19.043
1709252891.858,17.578,-971.191,-971.191,35.645,-40.527
1709252891.862,32.227,-971.191,-971.191,44.922,3.906
1709252891.866,38.574,-971.191,-971.191,63.965,45.898
1709252891.870,28.809,-971.191,-971.191,61.523,16.602
1709252891.874,26.367,-971.191,-971.191,67.383,11.230
1709252891.877,37.109,-971.191,-971.191,86.914,10.742
1709252891.881,72.266,-971.191,-971.191,82.520,19.531
1709252891.885,60.059,-971.191,-971.191,62.500,38.086
1709252891.889,34.668,-971.191,-971.191,50.781,38.574
1709252891.893,13.672,-971.191,-971.191,11.719,62.988
1709252891.897,-17.578,-971.191,-971.191,-7.812,4.395
1709252891.901,-7.812,-971.191,-971.191,-2.930,11.719
1709252891.904,-0.977,-971.191,-971.191,5.859,72.266
1709252891.908,16.602,-971.191,-971.191,34.668,47.363
1709252891.912,51.270,-971.191,-971.191,64.453,27.832
1709252891.916,61.523,-971.191,-971.191,50.781,42.480
1709252891.920,19.531,-971.191,-971.191,24.902,54.199
1709252891.922,0.977,-971.191,-971.191,43.457,46.875
1709252891.926,26.367,-971.191,-971.191,76.660,59.082
1709252891.930,43.945,-971.191,-971.191,75.195,50.293
1709252891.934,34.180,-971.191,-971.191,31.250,28.320
1709252891.938,14.648,-971.191,-971.191,31.738,50.781
1709252891.942,33.691,-971.191,-971.191,77.637,44.434
1709252891.946,59.570,-971.191,-971.191,96.680,17.578
1709252891.949,58.594,-971.191,-971.191,75.195,61.035
1709252891.953,57.617,-971.191,-971.191,62.012,55.176
1709252891.957,60.059,-971.191,-971.191,63.477,36.621
1709252891.961,31.250,-971.191,-971.191,43.457,86.426
1709252891.965,19.531,-971.191,-971.191,25.879,35.645
1709252891.967,16.113,-971.191,-971.191,20.996,25.879
1709252891.971,8.789,-971.191,-971.191,31.738,80.566
1709252891.975,24.902,-971.191,-971.191,35.156,94.727
1709252891.979,28.809,-971.191,-971.191,12.695,49.316
1709252891.983,36.133,-971.191,-971.191,2.441,17.090
1709252891.987,32.227,-971.191,-971.191,-11.719,-18.066
1709252891.991,12.695,-971.191,-971.191,4.883,-48.340
1709252891.994,8.301,-971.191,-971.191,20.508,6.836
1709252891.998,2.441,-971.191,-971.191,-18.066,25.879
1709252892.002,6.348,-971.191,-971.191,-37.109,15.137
1709252892.006,21.484,-971.191,-971.191,-1.465,52.246
1709252892.010,24.902,-971.191,-971.191,3.418,69.336
1709252892.013,45.410,-971.191,-971.191,-24.902,61.523
1709252892.017,20.996,-971.191,-971.191,-33.203,51.270
1709252892.021,0.000,-971.191,-971.191,-16.602,21.973
1709252892.025,40.527,-971.191,-971.191,23.438,62.988
1709252892.029,52.246,-971.191,-972.168,0.000,92.285
1709252892.033,35.156,-971.191,-966.797,-20.508,42.480
1709252892.037,37.109,-971.191,-970.215,20.508,17.090
1709252892.040,40.039,-973.145,-978.027,22.949,-0.488
1709252892.044,41.504,-956.543,-774.414,3.418,27.832
1709252892.048,42.480,-957.031,-687.012,-6.348,78.613
1709252892.052,15.625,-980.469,-932.617,-19.043,96.680
1709252892.056,-8.301,-943.848,-842.773,-16.113,84.473
1709252892.056,2.930,-930.176,-655.273,-18.066,38.086
1709252892.060,25.879,-972.168,-862.793,-29.297,20.020
1709252892.064,20.508,-972.168,-988.281,-22.461,23.926
1709252892.068,13.672,-969.727,-963.867,7.324,-16.113
1709252892.072,36.621,-971.680,-944.336,38.086,-12.207
1709252892.076,16.113,-971.191,-960.449,22.461,17.090
1709252892.080,-13.184,-971.191,-968.262,-16.113,83.008
1709252892.083,20.020,-971.191,-989.746,4.883,35.645
1709252892.087,43.945,-971.191,-881.836,55.176,-5.859
1709252892.091,43.945,-971.191,-828.125,55.664,71.289
1709252892.095,23.438,-970.703,-964.355,16.602,68.848
1709252892.099,0.000,-972.656,-997.559,-34.668,19.531
1709252892.116,6.348,-966.797,-878.418,-19.043,77.148
1709252892.120,27.344,-963.867,-839.844,-6.836,124.023
1709252892.124,26.855,-971.680,-978.516,-26.367,39.551
1709252892.128,22.461,-971.191,-974.609,-12.207,-22.949
1709252892.132,34.668,-970.703,-959.473,21.484,17.578
1709252892.136,36.621,-971.191,-965.820,37.598,14.160
1709252892.140,24.902,-971.680,-973.145,27.344,-19.043
1709252892.143,9.766,-969.727,-968.262,9.766,72.754
1709252892.147,50.781,-974.121,-976.074,42.480,53.223
1709252892.151,68.848,-965.332,-961.426,70.312,14.648
1709252892.155,28.320,-951.660,-934.082,29.785,51.270
1709252892.159,26.855,-961.426,-955.078,18.555,30.273
1709252892.161,31.738,-982.910,-986.328,20.508,37.109
1709252892.165,28.809,-926.270,-917.969,25.879,43.457
1709252892.169,31.738,-727.539,-623.047,31.738,54.199
1709252892.173,51.758,-676.270,-520.020,21.973,42.480
1709252892.177,46.387,-755.859,-606.934,36.133,82.520
1709252892.181,37.598,-753.906,-554.688,58.594,73.242
1709252892.185,32.715,-682.617,-437.500,41.992,50.781
1709252892.188,29.785,-711.914,-509.766,8.789,-13.184
1709252892.192,31.250,-776.367,-604.004,4.883,6.836
1709252892.196,25.391,-898.438,-775.879,29.297,63.965
1709252892.200,23.438,-533.691,-363.281,29.297,23.438
1709252892.204,15.137,-87.891,375.488,2.930,36.133
1709252892.206,18.555,-270.996,306.641,-8.789,9.277
1709252892.210,8.789,-274.414,301.270,18.066,12.695
1709252892.214,17.578,121.094,818.359,49.316,15.625
1709252892.218,46.875,169.434,-991.211,28.809,-15.137
1709252892.222,37.598,-318.359,404.785,-17.090,-14.648
1709252892.226,11.719,-533.203,-112.793,-19.043,48.340
1709252892.230,24.414,-303.711,46.387,22.461,54.688
1709252892.233,52.734,-41.016,365.234,12.207,52.246
1709252892.237,23.926,-352.051,3.418,-38.574,67.383
1709252892.241,4.883,-792.480,-722.168,10.254,20.020
1709252892.245,51.270,-257.324,-228.027,48.340,42.480
1709252892.249,47.852,144.531,525.391,8.301,65.918
1709252892.251,15.625,-14.648,486.328,-20.020,58.105
1709252892.255,14.160,-189.453,191.895,-18.066,44.434
1709252892.259,35.645,-145.996,203.613,16.602,-31.738
1709252892.263,44.922,-36.133,445.801,11.719,-31.738
1709252892.267,21.973,-118.652,456.055,3.418,7.812
1709252892.271,27.832,-416.016,67.383,8.301,-7.812
1709252892.275,26.367,-525.879,-101.562,9.766,3.418
1709252892.278,25.391,-271.484,309.570,22.461,48.340
1709252892.282,30.273,-459.473,268.066,14.648,105.469
1709252892.286,16.113,-601.074,-20.508,-1.953,48.340
1709252892.290,18.066,-161.621,405.762,7.324,44.922
1709252892.294,9.277,-32.715,719.238,4.883,45.898
1709252892.296,26.855,80.566,865.234,-4.395,34.668
1709252892.300,39.551,103.516,818.848,-13.672,37.109
1709252892.304,26.367,-160.156,390.137,0.000,-8.789
1709252892.308,47.363,-229.004,218.750,19.531,68.848
1709252892.312,26.367,-208.984,256.348,11.719,63.965
1709252892.316,0.000,-513.184,-157.227,-8.789,13.184
1709252892.320,0.977,-895.996,-795.410,-29.785,49.805
1709252892.323,6.348,-988.770,-1000.000,-17.578,71.777
1709252892.327,27.832,-883.789,-877.930,16.113,75.684
1709252892.331,17.578,-834.473,-832.031,7.324,16.113
1709252892.335,3.906,-876.465,-875.977,-21.973,35.156
1709252892.339,-4.883,-916.504,-919.922,-29.785,55.664
1709252892.341,3.906,-729.004,-630.859,-1.465,35.645
1709252892.345,28.809,-450.195,-126.465,5.371,69.824
1709252892.349,17.090,-674.316,-326.172,-22.949,13.672
1709252892.353,16.113,-960.449,-804.688,-1.953,-38.086
1709252892.357,12.207,-700.195,-532.227,30.762,36.133
1709252892.361,7.324,-632.324,-300.781,25.879,29.785
1709252892.365,23.926,-894.531,-677.246,-0.488,20.020
1709252892.368,-3.418,-1000.000,-1000.000,-20.508,13.672
1709252892.372,-16.602,-794.434,-730.957,-1.465,10.742
1709252892.376,-0.977,-429.688,-110.352,15.625,0.977
1709252892.380,-16.602,-499.512,-46.875,8.301,4.395
1709252892.384,-2.441,-698.242,-315.430,-4.395,28.809
1709252892.387,18.066,-754.395,-474.609,-8.789,-14.160
1709252892.391,20.996,-491.699,-149.414,1.953,-6.348
1709252892.395,35.156,-519.531,-52.246,-11.230,17.578
1709252892.399,41.504,-817.871,-487.793,-10.742,38.574
1709252892.403,17.090,-690.918,-497.070,-1.465,22.461
1709252892.407,-3.418,-533.203,-212.402,11.719,50.781
1709252892.411,-2.930,-719.727,-341.309,-12.207,74.707
1709252892.414,9.766,-951.660,-799.316,-23.926,32.715
1709252892.418,20.508,-763.672,-660.156,6.348,-10.254
1709252892.422,25.879,-491.699,-141.602,24.414,-41.992
1709252892.426,31.250,-370.605,165.527,1.465,-23.926
1709252892.430,19.043,-314.453,272.461,-29.297,67.383
1709252892.431,24.902,-364.746,200.195,-13.672,57.617
1709252892.435,40.039,-383.789,181.152,12.207,32.715
1709252892.439,49.805,-422.852,194.336,11.230,-25.391
1709252892.443,43.457,-645.996,-158.691,-8.301,-78.613
1709252892.447,27.832,-786.621,-502.930,-22.461,-16.113
1709252892.451,6.348,-903.809,-785.645,-16.113,8.789
1709252892.455,-5.859,-988.281,-976.074,6.348,7.812
1709252892.458,16.602,-933.594,-961.914,26.367,5.859
1709252892.462,14.648,-825.195,-914.551,28.320,41.504
1709252892.466,10.742,-873.047,-927.734,21.973,61.035
1709252892.470,23.438,-864.746,-878.418,22.461,-34.668
1709252892.474,16.113,-630.859,-574.707,25.879,-24.902
1709252892.491,3.418,-575.684,-438.477,30.762,74.707
1709252892.495,-4.395,-843.750,-754.395,32.715,39.551
1709252892.499,-10.254,-780.273,-682.617,37.109,57.617
1709252892.503,3.418,-411.621,-135.742,36.133,74.219
1709252892.507,10.254,-404.785,18.066,33.203,69.824
1709252892.511,9.766,-761.230,-514.160,30.762,78.613
1709252892.515,27.344,-989.746,-1000.000,19.531,-5.371
1709252892.518,37.598,-772.949,-741.211,31.738,32.227
1709252892.522,36.133,-550.293,-480.957,24.414,41.992
1709252892.526,22.461,-785.645,-753.906,22.461,52.734
1709252892.530,17.090,-925.293,-1000.000,53.711,50.781
1709252892.534,33.691,-585.449,-856.934,90.332,-10.742
1709252892.536,32.715,-505.371,-792.969,62.988,19.531
1709252892.540,20.020,-802.734,-965.332,20.020,20.020
1709252892.544,26.367,-899.902,-978.516,26.367,-0.488
1709252892.548,48.828,-684.082,-964.844,41.992,21.973
1709252892.552,35.156,-700.195,-972.656,32.715,-1.465
1709252892.556,10.742,-956.543,-971.191,28.320,-83.984
1709252892.560,29.297,-1000.000,-971.191,32.715,-40.039
1709252892.563,44.922,-864.258,-971.191,58.105,-40.039
1709252892.567,46.875,-750.488,-971.191,63.965,32.715
1709252892.571,29.297,-937.500,-971.191,16.113,51.270
1709252892.575,20.020,-997.070,-971.191,-1.953,-64.941
1709252892.579,57.129,-796.875,-971.191,22.949,-42.480
1709252892.581,79.102,-665.039,-971.191,66.895,18.555
1709252892.585,58.105,-662.109,-971.191,71.289,66.406
1709252892.589,20.508,-747.070,-971.191,21.973,36.621
1709252892.593,20.508,-854.004,-971.191,10.742,-48.828
1709252892.597,15.137,-773.438,-971.191,21.484,17.090
1709252892.601,5.859,-851.562,-971.191,0.977,42.480
1709252892.605,18.555,-992.676,-971.191,-15.625,-71.777
1709252892.608,2.930,-906.738,-971.191,-20.508,24.414
1709252892.612,2.441,-902.832,-971.191,-1.465,52.734
1709252892.616,10.254,-925.293,-971.191,0.488,-0.977
1709252892.620,6.836,-842.285,-970.703,-18.555,61.035
1709252892.624,0.488,-945.801,-967.773,-21.973,26.855
1709252892.642,5.859,-982.422,-982.910,4.883,7.812
1709252892.646,13.184,-801.758,-913.574,23.438,28.809
1709252892.650,8.301,-765.625,-900.391,2.930,6.836
1709252892.654,18.555,-930.664,-978.027,5.371,23.926
1709252892.658,17.090,-957.520,-970.703,28.809,42.480
1709252892.662,3.418,-951.660,-969.727,35.645,-26.367
1709252892.666,-0.488,-970.215,-970.703,29.297,-6.348
1709252892.669,-0.977,-967.285,-964.355,16.113,54.199
1709252892.673,-9.277,-982.910,-992.676,15.137,51.758
1709252892.677,-24.902,-832.520,-854.004,34.180,55.664
1709252892.681,-14.648,-755.371,-770.508,16.602,6.348
1709252892.685,8.789,-907.715,-933.594,16.113,13.672
1709252892.671,26.855,-995.605,-989.258,21.484,45.898
1709252892.675,35.156,-897.949,-937.012,35.645,29.785
1709252892.679,61.035,-842.285,-896.973,58.594,61.035
1709252892.683,49.805,-968.262,-965.820,50.293,43.945
1709252892.687,22.461,-977.051,-976.074,22.461,33.691
1709252892.691,17.090,-966.309,-967.285,54.688,28.809
1709252892.695,40.039,-972.168,-972.168,83.008,11.230
1709252892.698,93.262,-971.191,-971.191,62.500,20.996
1709252892.702,89.844,-971.191,-971.191,57.617,11.230
1709252892.706,42.480,-971.191,-971.191,44.922,41.016
1709252892.710,16.602,-971.191,-971.191,25.879,23.926
1709252892.714,26.367,-971.191,-971.191,1.953,29.297
1709252892.716,38.086,-971.191,-971.191,-21.973,47.363
1709252892.720,38.086,-971.191,-971.191,-6.836,27.344
1709252892.724,39.551,-971.191,-971.191,22.949,-6.836
1709252892.728,62.012,-971.191,-971.191,31.738,11.230
1709252892.732,81.055,-971.191,-971.191,39.551,53.223
1709252892.736,45.410,-971.191,-971.191,25.391,41.016
1709252892.740,17.578,-971.191,-971.191,31.250,29.297
1709252892.743,19.531,-971.191,-971.191,31.250,33.691
1709252892.747,11.719,-971.191,-971.191,2.441,-13.672
1709252892.751,-6.836,-971.191,-971.191,-13.672,-41.504
1709252892.755,26.855,-971.191,-971.191,14.648,-19.531
1709252892.759,39.062,-971.191,-971.191,60.547,11.719
1709252892.761,14.648,-971.191,-971.191,40.527,77.637
1709252892.765,0.000,-971.191,-971.191,17.090,0.488
1709252892.769,-4.395,-971.191,-971.191,33.203,-42.969
1709252892.773,25.879,-971.191,-971.191,44.434,45.410
1709252892.777,13.184,-971.191,-971.680,18.555,50.781
1709252892.781,-22.461,-971.191,-969.238,-27.832,5.371
1709252892.785,-17.578,-971.191,-975.098,-19.531,0.000
1709252892.788,-14.160,-971.191,-961.914,30.762,23.438
1709252892.792,-5.859,-972.656,-941.406,45.410,43.457
1709252892.796,-0.488,-958.984,-950.684,20.508,37.109
1709252892.800,7.324,-991.211,-994.141,9.277,38.574
1709252892.804,26.367,-875.488,-616.699,10.742,105.957
1709252892.806,38.574,-569.824,108.887,17.578,142.578
1709252892.810,24.902,-600.098,294.434,18.555,39.062
1709252892.814,1.953,-812.988,71.777,20.508,22.949
1709252892.818,2.930,-633.301,325.195,17.090,24.414
1709252892.822,24.902,-219.727,877.930,10.254,34.668
1709252892.826,8.301,-174.316,-940.430,10.742,79.102
1709252892.830,-10.254,-682.129,668.945,22.461,50.781
1709252892.833,2.441,-522.949,668.457,24.414,42.480
1709252892.837,20.996,167.480,-958.984,23.926,38.574
1709252892.841,19.043,131.348,992.676,14.648,-59.570
1709252892.845,3.418,-16.602,993.652,16.113,-71.289
1709252892.849,-1.953,16.113,-999.512,13.672,-0.488
1709252892.852,5.371,157.715,999.512,27.344,-0.977
1709252892.856,17.090,212.891,999.512,44.434,-14.160
1709252892.860,20.508,79.102,999.512,48.340,-5.859
1709252892.864,25.391,296.875,999.512,43.457,74.707
1709252892.868,41.016,461.426,999.512,29.785,25.391
1709252892.872,43.945,229.980,999.512,27.832,-20.020
1709252892.876,22.949,60.547,999.512,12.207,36.133
1709252892.879,20.996,278.320,999.512,6.348,51.758
1709252892.883,38.086,391.113,999.512,8.789,50.293
1709252892.887,49.805,250.488,999.512,32.227,-11.719
1709252892.891,31.738,170.410,999.512,37.109,-42.969
1709252892.895,12.207,260.254,999.512,10.254,18.066
1709252892.912,-0.977,193.359,999.512,17.578,48.828
1709252892.916,14.160,243.164,999.512,33.691,64.453
1709252892.920,27.832,154.785,999.512,20.020,-5.859
1709252892.924,5.859,-17.090,997.559,-13.184,11.230
1709252892.928,4.395,73.730,-994.629,-31.250,104.980
1709252892.932,5.371,-289.551,969.238,-11.230,52.246
1709252892.936,12.207,-312.500,966.309,2.441,29.785
1709252892.939,9.766,161.133,-995.117,-24.414,66.406
1709252892.943,-1.465,-3.906,998.047,-41.992,45.410
1709252892.947,3.418,-30.762,999.023,-11.230,48.828
1709252892.951,4.395,277.344,999.512,4.883,33.691
1709252892.955,13.184,304.199,999.512,0.977,42.480
1709252892.956,13.184,27.832,999.512,4.395,46.875
1709252892.960,2.930,-117.676,999.512,9.766,-48.340
1709252892.964,-9.766,168.945,999.512,26.855,-26.855
1709252892.968,-16.113,311.035,999.512,-1.465,39.062
1709252892.972,-0.977,54.688,999.512,-18.066,20.020
1709252892.976,28.809,-170.898,999.512,5.859,32.715
1709252892.980,15.137,-15.625,997.559,0.977,51.270
1709252892.983,3.418,157.227,-998.047,-18.066,19.531
1709252892.987,1.953,-151.367,995.117,-28.320,-24.902
1709252892.991,-9.766,-487.793,972.168,-40.039,-9.766
1709252892.995,-8.789,47.363,993.652,-9.766,-3.906
1709252892.999,14.648,577.148,-997.559,17.090,18.555
1709252893.001,29.297,437.012,997.559,-4.395,5.859
1709252893.005,10.742,387.207,-1000.000,-30.762,23.438
1709252893.009,8.301,518.066,999.512,-12.207,-2.441
1709252893.013,34.180,620.605,999.512,25.391,-14.648
1709252893.017,28.809,615.234,999.512,12.695,62.988
1709252893.021,14.648,424.316,999.512,-12.207,41.504
1709252893.025,24.902,414.062,999.512,-14.160,58.105
1709252893.028,21.973,587.402,999.512,3.906,39.062
1709252893.032,17.578,348.145,999.512,9.277,62.500
1709252893.036,20.508,337.891,999.512,6.348,92.285
1709252893.040,11.230,770.508,999.512,0.000,41.504
1709252893.044,14.160,869.629,999.512,39.551,7.324
1709252893.046,23.438,918.945,999.512,59.570,30.273
1709252893.050,9.766,996.094,999.512,9.277,76.660
1709252893.054,-15.625,956.543,999.512,-11.719,67.871
1709252893.058,-15.625,928.223,999.512,5.859,48.828
1709252893.062,14.160,-998.047,999.512,33.203,73.242
1709252893.066,21.973,853.516,999.512,34.668,30.762
1709252893.070,11.719,720.215,999.512,-2.930,-34.180
1709252893.073,17.578,663.574,999.512,9.277,8.789
1709252893.077,25.879,685.059,999.512,12.207,16.113
1709252893.081,11.230,989.258,999.512,-14.160,-7.324
1709252893.085,20.508,-988.770,999.512,-1.953,14.648
1709252893.089,28.320,913.086,999.512,-16.113,-15.137
1709252893.091,9.277,941.895,999.512,-0.488,-20.508
1709252893.095,15.137,-974.609,999.512,21.973,-30.762
1709252893.099,21.484,971.191,999.512,-20.996,-50.781
1709252893.103,7.324,788.574,999.512,-20.020,1.465
1709252893.107,13.184,889.160,999.512,20.508,3.906
1709252893.111,34.668,-993.652,999.512,26.367,-0.488
1709252893.115,27.344,808.594,999.512,5.371,8.301
1709252893.118,23.926,419.434,999.512,-4.883,6.836
1709252893.122,-18.066,632.812,999.512,28.320,35.645
1709252893.126,-64.453,-936.523,999.512,39.062,62.500
1709252893.130,-117.188,885.742,999.512,-24.414,32.715
1709252893.134,-173.828,673.340,999.512,-61.035,18.555
1709252893.136,-188.477,727.539,999.512,-24.902,4.883
1709252893.140,-190.918,848.633,999.512,3.906,-21.484
1709252893.144,-199.219,522.461,999.512,-0.488,-12.207
1709252893.148,-215.820,243.652,-998.047,-19.043,33.691
1709252893.152,-211.426,379.883,984.863,-16.113,56.152
1709252893.156,-207.031,366.211,-979.492,25.879,79.102
1709252893.160,-189.941,27.344,933.105,32.227,91.797
1709252893.163,-183.594,-377.930,595.215,-8.789,41.016
1709252893.167,-203.125,-193.848,705.078,-12.695,45.410
1709252893.171,-194.336,73.730,983.398,15.625,67.383
1709252893.175,-153.809,48.340,-993.652,21.484,53.711
1709252893.179,-131.836,-109.863,959.473,13.672,25.391
1709252893.181,-138.184,-251.465,725.586,-5.859,8.301
1709252893.185,-106.934,-283.203,641.602,5.371,37.598
1709252893.189,-42.480,-247.559,719.238,25.879,73.242
1709252893.193,-23.438,-312.012,603.027,-5.859,41.992
1709252893.197,-40.527,-515.137,262.695,-28.320,17.578
1709252893.201,-24.414,-788.574,-101.074,-21.484,36.133
1709252893.205,0.977,-973.633,-597.656,1.953,23.926
1709252893.208,15.625,-953.613,-787.109,9.766,-3.418
1709252893.212,16.602,-884.766,-519.043,4.395,26.367
1709252893.216,18.555,-953.125,-636.230,8.789,41.016
1709252893.220,18.555,-891.113,-597.168,30.762,68.359
1709252893.224,32.227,-786.621,-346.680,23.926,40.527
1709252893.242,74.219,-928.223,-595.215,10.254,21.973
1709252893.246,102.539,-979.004,-908.691,37.598,20.508
1709252893.250,70.312,-966.309,-975.586,44.434,-16.602
1709252893.254,61.523,-971.191,-962.891,20.996,-39.062
1709252893.258,82.031,-971.191,-971.680,14.160,-70.312
1709252893.262,60.547,-971.191,-971.680,14.648,-18.555
1709252893.266,59.082,-971.191,-971.191,20.996,2.930
1709252893.269,68.848,-971.191,-971.191,24.902,4.883
1709252893.273,49.805,-971.191,-971.191,-4.395,6.836
1709252893.277,63.965,-971.191,-971.191,-20.996,21.973
1709252893.281,83.984,-971.191,-971.191,-1.465,38.574
1709252893.285,57.617,-971.191,-971.191,20.508,-46.875
1709252893.286,62.500,-971.191,-971.191,29.297,-24.902
1709252893.290,69.336,-971.191,-971.191,16.113,29.785
1709252893.294,63.965,-971.191,-971.191,11.230,11.230
1709252893.298,53.223,-971.191,-971.191,21.973,27.832
1709252893.302,71.289,-971.191,-971.191,15.137,38.574
1709252893.306,89.355,-971.191,-971.191,20.996,59.570
1709252893.310,82.031,-971.191,-971.191,23.438,39.551
1709252893.313,63.477,-971.191,-971.191,24.902,14.160
1709252893.317,35.156,-971.191,-971.191,28.809,17.578
1709252893.321,50.781,-971.191,-971.191,17.090,59.570
1709252893.325,58.105,-971.191,-971.191,16.113,74.707
1709252893.329,55.176,-971.191,-971.191,39.551,17.578
1709252893.331,102.051,-971.191,-971.191,65.430,-14.160
1709252893.335,93.750,-971.191,-971.191,35.645,-1.953
1709252893.339,39.062,-971.191,-971.191,-3.906,12.207
1709252893.343,41.504,-971.191,-971.191,9.766,21.484
1709252893.347,55.176,-971.191,-971.191,51.270,56.641
1709252893.351,32.227,-971.191,-971.191,22.949,64.453
1709252893.355,16.113,-971.191,-971.191,-17.578,32.715
1709252893.358,24.902,-971.191,-971.191,3.906,8.789
1709252893.362,47.363,-971.191,-971.191,21.973,29.785
1709252893.366,82.031,-971.191,-971.191,22.949,-10.254
1709252893.370,89.844,-971.191,-971.191,-0.977,-47.363
1709252893.374,55.176,-971.191,-971.191,-24.902,-20.020
1709252893.377,44.922,-971.191,-971.191,-5.859,-6.836
1709252893.381,62.012,-971.191,-971.191,3.906,21.973
1709252893.385,68.848,-971.191,-971.191,-12.207,-19.043
1709252893.389,62.500,-971.191,-971.191,9.766,-13.184
1709252893.393,54.688,-971.191,-971.191,26.367,5.859
1709252893.397,67.871,-971.191,-971.191,41.016,24.902
1709252893.401,83.496,-971.191,-971.191,49.805,82.031
1709252893.404,98.633,-971.191,-971.191,4.395,77.148
1709252893.408,106.445,-971.191,-971.191,7.812,31.738
1709252893.412,88.379,-971.191,-971.191,34.180,-13.184
1709252893.416,75.195,-971.191,-971.191,10.742,27.344
1709252893.420,71.289,-971.191,-971.191,-16.113,34.668
1709252893.421,23.438,-971.191,-971.191,-47.852,-21.484
1709252893.425,10.254,-971.191,-971.191,-20.996,-32.227
1709252893.429,38.574,-971.191,-971.191,9.277,0.488
1709252893.433,52.246,-971.191,-971.191,-13.672,11.719
1709252893.437,34.180,-971.191,-971.191,-28.320,-25.879
1709252893.441,24.902,-971.191,-971.191,2.930,-20.020
1709252893.445,54.199,-971.191,-971.191,18.555,52.246
1709252893.448,62.500,-971.191,-971.191,14.648,89.844
1709252893.452,62.988,-971.191,-971.191,29.297,103.027
1709252893.456,44.434,-971.191,-971.191,28.809,86.914
1709252893.460,20.996,-971.191,-971.191,45.410,94.727
1709252893.464,20.508,-971.191,-971.191,55.664,104.004
1709252893.466,40.039,-971.191,-971.191,23.438,49.316
1709252893.470,48.340,-971.191,-971.191,26.367,51.270
1709252893.474,48.828,-971.191,-971.191,56.641,53.223
1709252893.478,35.645,-971.191,-971.191,34.180,-24.414
1709252893.482,24.414,-971.191,-971.191,-10.254,-24.414
1709252893.486,38.574,-971.191,-971.191,4.395,-15.137
1709252893.490,47.852,-971.191,-971.191,43.945,8.301
1709252893.493,60.059,-971.191,-971.191,67.383,30.273
1709252893.497,61.035,-971.191,-971.191,59.082,13.184
1709252893.501,46.387,-971.191,-971.191,13.672,28.320
1709252893.505,53.711,-971.191,-971.191,4.883,9.277
1709252893.509,60.547,-971.191,-971.191,31.738,-12.207
1709252893.512,36.621,-971.191,-971.191,28.320,27.344
1709252893.516,26.367,-971.191,-971.191,25.879,52.246
1709252893.520,30.273,-971.191,-971.191,59.570,54.199
1709252893.524,43.457,-971.191,-971.191,72.754,13.184
1709252893.528,74.219,-971.191,-972.168,54.199,35.156
1709252893.532,47.852,-971.191,-966.309,17.090,68.848
1709252893.536,34.180,-971.191,-977.539,18.066,59.082
1709252893.539,55.664,-971.191,-946.289,53.711,49.805
1709252893.543,62.500,-971.191,-821.777,85.938,48.340
1709252893.547,56.152,-971.191,-814.453,79.590,30.273
1709252893.551,31.250,-971.191,-953.613,38.086,22.949
1709252893.555,25.879,-971.191,-961.914,41.992,27.832
1709252893.556,36.621,-971.191,-605.957,49.316,20.996
1709252893.560,34.180,-969.238,-388.672,34.668,27.344
1709252893.564,23.926,-969.727,-672.852,33.203,20.020
1709252893.568,50.293,-984.863,-626.953,41.016,7.812
1709252893.572,67.383,-857.422,-74.707,61.523,25.391
1709252893.576,53.223,-869.629,-24.902,35.645,5.859
1709252893.580,42.969,-993.164,-652.344,-1.953,-11.230
1709252893.583,35.156,-945.801,-608.887,20.996,58.594
1709252893.587,14.648,-679.688,172.852,12.695,97.168
1709252893.591,19.043,-607.910,455.566,-4.395,74.219
1709252893.595,44.922,-826.660,204.102,7.324,53.223
1709252893.599,24.902,-794.434,153.809,-1.953,96.191
1709252893.602,28.809,-686.035,335.938,11.719,36.133
1709252893.606,22.949,-776.367,318.848,11.719,-11.719
1709252893.610,0.488,-879.395,156.250,-22.949,66.406
1709252893.614,-1.465,-913.574,-13.184,-34.668,30.762
1709252893.618,-0.977,-860.840,85.449,-11.719,15.137
1709252893.622,-7.324,-871.094,40.039,8.789,33.203
1709252893.626,-1.953,-973.633,-263.184,2.930,41.992
1709252893.629,7.812,-989.746,-206.055,-21.973,12.207
1709252893.633,1.465,-836.426,46.387,-7.324,34.180
1709252893.637,33.203,-766.113,232.422,59.082,75.684
1709252893.641,51.758,-786.621,232.422,63.477,53.711
1709252893.645,33.203,-781.738,152.344,19.043,30.762
1709252893.677,-2.930,-923.340,-106.445,-7.812,9.277
1709252893.681,-39.062,-906.738,-165.527,11.230,72.754
1709252893.685,-22.949,-789.551,-59.570,1.465,66.406
1709252893.689,-19.531,-809.570,-119.629,-32.715,45.898
1709252893.693,-20.020,-924.316,-374.023,-27.344,64.453
1709252893.697,-1.465,-986.816,-796.387,-0.977,36.621
1709252893.701,15.137,-900.391,-727.539,55.664,29.785
1709252893.704,25.391,-645.996,-142.578,45.898,34.180
1709252893.708,-3.906,-711.426,-86.914,5.859,13.184
1709252893.712,7.812,-703.613,-14.160,17.578,-11.230
1709252893.716,34.180,-180.176,687.012,46.875,1.953
1709252893.720,46.875,166.992,-964.844,54.688,40.527
1709252893.706,37.598,76.172,977.051,-12.695,48.828
1709252893.710,15.625,123.047,997.070,-46.387,20.508
1709252893.714,32.227,519.043,-999.512,-36.621,9.766
1709252893.718,43.457,734.863,999.512,-70.312,-7.324
1709252893.722,31.250,637.695,999.512,-127.441,-4.395
1709252893.726,23.438,553.711,999.512,-163.574,17.090
1709252893.730,41.504,831.055,999.512,-153.320,75.195
1709252893.733,45.410,991.211,999.512,-143.555,76.660
1709252893.737,39.062,802.734,999.512,-158.691,25.879
1709252893.741,27.832,865.723,999.512,-156.250,39.551
1709252893.745,32.227,990.723,999.512,-125.488,51.758
1709252893.749,32.227,-942.871,999.512,-107.422,44.434
1709252893.751,14.160,710.449,999.512,-93.750,15.625
1709252893.755,23.926,260.742,999.512,-70.312,10.254
1709252893.759,46.387,657.715,999.512,-66.895,17.578
1709252893.763,49.316,899.902,999.512,-47.852,11.719
1709252893.767,15.625,739.746,999.512,-26.855,24.414
1709252893.771,-6.348,486.816,999.512,-47.852,33.691
1709252893.775,8.789,391.602,999.512,-43.945,48.828
1709252893.778,36.621,448.242,999.512,-1.465,21.484
1709252893.782,72.266,225.098,999.512,14.648,31.250
1709252893.786,53.711,224.609,999.512,-6.836,35.645
1709252893.790,13.184,365.723,999.512,-14.648,7.812
1709252893.794,15.625,305.176,999.512,18.066,45.410
1709252893.796,32.715,316.895,999.023,49.805,41.016
1709252893.800,40.039,441.895,-999.512,47.363,71.289
1709252893.804,29.785,363.770,998.535,23.438,78.613
1709252893.808,45.898,232.910,972.168,43.945,49.316
1709252893.812,55.664,285.156,-979.980,81.055,31.250
1709252893.816,59.082,90.820,665.527,73.242,39.062
1709252893.820,46.875,-244.141,-217.285,54.199,44.434
1709252893.823,23.438,-573.242,-813.965,68.848,49.316
1709252893.827,47.363,-719.727,-966.309,105.957,46.875
1709252893.831,54.688,-388.672,-960.938,108.887,37.109
1709252893.835,15.625,-472.656,-970.215,80.078,25.391
1709252893.839,-2.441,-700.195,-972.168,82.031,55.664
1709252893.842,20.996,-666.504,-971.191,99.121,11.230
1709252893.846,29.297,-766.602,-971.191,93.750,-38.086
1709252893.850,13.184,-945.801,-971.191,78.125,-0.488
1709252893.854,14.648,-980.469,-971.191,58.594,-15.137
1709252893.858,25.391,-916.504,-971.191,84.961,1.953
1709252893.862,28.320,-900.879,-971.191,96.191,30.762
1709252893.866,16.602,-969.238,-971.191,49.805,-48.340
1709252893.869,0.977,-990.234,-971.191,25.391,-34.180
1709252893.873,0.977,-872.070,-971.191,49.805,76.660
1709252893.877,19.043,-667.969,-971.191,66.406,47.363
1709252893.881,33.691,-816.895,-971.191,49.316,-4.883
1709252893.885,48.340,-955.566,-971.191,42.480,63.965
1709252893.916,48.828,-815.918,-971.191,71.289,57.129
1709252893.920,40.527,-634.277,-971.191,105.957,20.996
1709252893.924,5.371,-686.035,-971.191,74.219,40.527
1709252893.928,3.418,-876.465,-971.191,30.273,20.020
1709252893.932,27.832,-960.938,-971.191,42.969,-28.809
1709252893.936,41.016,-900.879,-971.191,69.824,-12.695
1709252893.940,26.367,-853.516,-971.680,67.871,69.336
1709252893.943,5.859,-985.352,-959.961,41.992,71.289
1709252893.947,-8.789,-888.184,-996.582,34.180,43.457
1709252893.951,-16.113,-591.797,-837.891,50.293,63.477
1709252893.955,16.113,-496.094,-634.766,60.059,51.758
1709252893.959,18.066,-544.434,-665.039,38.574,52.246
1709252893.931,24.902,-615.723,-776.367,24.414,41.016
1709252893.935,52.734,-694.336,-831.543,60.059,-4.883
1709252893.939,26.367,-618.164,-668.457,80.078,36.133
1709252893.943,28.320,-508.789,-479.004,56.152,42.969
1709252893.947,39.062,-523.438,-424.316,38.086,46.387
1709252893.951,48.340,-763.672,-666.016,57.617,53.711
1709252893.955,62.988,-708.496,-608.398,93.262,72.266
1709252893.958,31.250,-561.523,-377.441,63.965,53.711
1709252893.962,21.484,-675.293,-505.859,2.441,13.184
1709252893.966,23.926,-796.387,-687.012,8.301,62.988
1709252893.970,11.230,-897.461,-787.598,28.809,43.945
1709252893.974,27.344,-780.273,-605.469,24.414,56.152
1709252893.991,30.762,-813.477,-611.816,4.395,83.008
1709252893.995,11.230,-959.961,-868.164,-1.953,36.621
1709252893.999,23.926,-981.445,-1000.000,28.809,33.691
1709252894.003,37.598,-941.406,-875.977,38.086,52.734
1709252894.007,30.273,-940.430,-811.035,3.418,41.016
1709252894.011,27.832,-974.121,-954.590,6.348,-21.484
1709252894.015,37.598,-971.191,-988.770,49.805,-32.227
1709252894.018,37.598,-970.703,-847.656,58.105,-20.508
1709252894.022,18.555,-971.191,-802.246,29.297,6.348
1709252894.026,30.273,-971.191,-948.242,-8.789,4.395
1709252894.030,36.133,-971.191,-978.516,5.371,-1.953
1709252894.034,25.391,-971.191,-965.820,38.574,5.859
1709252894.036,26.855,-971.191,-972.168,44.434,0.977
1709252894.040,13.672,-971.191,-971.191,30.762,5.859
1709252894.044,16.602,-971.191,-971.191,11.719,-24.414
1709252894.048,12.695,-971.191,-971.191,30.273,-2.930
1709252894.052,8.789,-971.191,-971.191,33.691,-13.672
1709252894.056,35.645,-971.191,-971.191,7.324,-25.879
1709252894.060,32.715,-971.191,-971.191,13.672,18.555
1709252894.063,34.180,-971.191,-971.191,26.855,-3.906
1709252894.067,23.926,-971.191,-971.191,37.109,-21.484
1709252894.071,8.301,-971.191,-971.191,28.809,-6.836
1709252894.075,15.625,-971.191,-971.191,13.184,8.789
1709252894.079,33.691,-971.191,-971.191,29.297,47.852
1709252894.082,66.895,-971.191,-971.191,48.340,51.270
1709252894.086,40.527,-971.191,-971.191,27.832,60.059
1709252894.090,16.113,-971.191,-971.191,4.883,25.879
1709252894.094,33.691,-971.191,-971.191,6.836,-47.852
1709252894.098,20.508,-971.191,-971.191,34.180,-20.020
1709252894.102,19.531,-971.191,-971.191,28.809,24.902
1709252894.106,21.484,-971.191,-971.191,-16.602,44.922
1709252894.109,16.113,-971.191,-967.773,-13.672,30.273
1709252894.113,24.902,-971.191,-978.516,23.926,-2.930
1709252894.117,44.922,-971.680,-941.895,47.363,-21.973
1709252894.121,75.195,-968.750,-883.789,53.711,-10.742
1709252894.125,66.406,-970.215,-907.715,29.297,36.133
1709252894.126,20.020,-978.027,-925.781,7.324,57.129
1709252894.130,11.230,-872.559,-716.309,29.297,34.180
1709252894.134,10.254,-842.773,-610.840,24.902,50.293
1709252894.138,12.207,-955.078,-854.980,-10.254,99.609
1709252894.142,44.922,-975.586,-983.887,18.066,86.914
1709252894.146,51.758,-967.773,-963.867,40.039,31.738
1709252894.150,13.672,-972.168,-971.680,20.996,15.625
1709252894.153,-6.348,-968.262,-956.055,5.371,37.598
1709252894.157,9.277,-974.609,-991.211,-14.160,74.707
1709252894.161,28.320,-962.891,-868.652,16.602,71.289
1709252894.165,19.043,-883.301,-396.484,30.762,59.082
1709252894.169,11.719,-906.738,-404.785,-13.184,37.598
1709252894.171,8.301,-992.676,-634.277,-8.301,32.227
1709252894.175,15.137,-890.625,-228.027,40.039,67.383
1709252894.179,25.879,-696.289,227.539,53.223,28.809
1709252894.183,29.785,-794.434,207.031,23.438,55.664
1709252894.187,30.762,-971.680,-41.016,10.742,83.008
1709252894.191,16.113,-968.750,-261.719,25.391,-31.738
1709252894.195,17.578,-968.262,-234.375,37.109,-43.457
1709252894.198,47.363,-964.355,-311.523,36.621,40.527
1709252894.202,41.992,-983.398,-739.258,4.395,76.172
1709252894.206,28.320,-927.246,-522.949,-6.836,94.727
1709252894.210,30.762,-750.488,7.324,7.812,40.039
1709252894.214,30.762,-856.934,-52.246,3.418,-10.742
1709252894.216,16.602,-992.676,-406.250,-20.996,21.484
1709252894.220,7.324,-963.867,-541.016,-14.160,67.871
1709252894.224,22.461,-970.703,-526.855,24.902,45.410
1709252894.228,24.902,-971.191,-564.453,25.391,27.832
1709252894.232,13.184,-971.191,-726.074,12.695,38.086
1709252894.236,34.668,-971.191,-939.453,43.457,4.395
1709252894.240,63.477,-971.191,-978.027,78.613,-32.715
1709252894.243,35.156,-971.191,-963.867,42.969,-42.480
1709252894.247,-5.371,-971.191,-972.656,-22.461,39.062
1709252894.251,9.766,-971.191,-967.285,-35.645,35.156
1709252894.255,45.410,-971.191,-981.445,-8.789,-17.578
1709252894.259,36.621,-971.191,-931.152,9.766,48.340
1709252894.261,19.043,-971.191,-895.508,6.348,48.340
1709252894.265,16.602,-971.191,-962.402,2.441,31.250
1709252894.269,3.906,-971.191,-986.816,-15.137,40.039
1709252894.273,15.137,-971.191,-919.434,8.301,25.391
1709252894.277,36.133,-971.680,-885.254,59.082,-8.301
1709252894.281,30.762,-968.262,-956.543,22.461,20.508
1709252894.285,22.461,-970.215,-978.027,-5.859,36.133
1709252894.288,35.645,-978.516,-956.055,20.020,-33.203
1709252894.292,33.203,-855.469,-691.895,13.672,7.812
1709252894.296,23.438,-812.500,-576.660,-5.371,21.973
1709252894.300,23.926,-975.586,-856.934,-11.719,32.715
1709252894.304,41.016,-875.000,-785.156,18.066,62.988
1709252894.308,52.246,-558.594,-291.992,48.340,55.176
1709252894.312,27.832,-660.156,-315.430,12.695,46.875
1709252894.316,3.906,-937.500,-761.719,-36.621,87.402
1709252894.320,12.207,-821.777,-744.141,-26.367,56.152
1709252894.324,25.879,-448.242,-195.312,14.160,28.320
1709252894.328,2.441,-435.547,49.316,7.324,54.688
1709252894.332,-5.859,-864.746,-604.492,-16.113,41.992
1709252894.335,12.695,-862.305,-847.656,11.719,44.922
1709252894.339,28.320,-328.613,-45.410,42.969,77.148
1709252894.343,52.734,-240.234,301.758,44.922,27.344
1709252894.347,48.340,-469.238,12.695,29.785,4.883
1709252894.351,20.996,-504.395,-183.105,18.066,28.320
1709252894.366,32.227,-383.301,-57.129,39.551,32.227
1709252894.370,32.715,-403.320,-7.812,52.734,22.949
1709252894.374,15.137,-545.410,-237.305,37.109,83.984
1709252894.378,7.324,-762.207,-651.367,15.137,69.336
1709252894.382,2.441,-961.426,-988.770,25.391,15.625
1709252894.386,-0.488,-938.965,-961.914,49.316,41.016
1709252894.390,5.859,-972.656,-965.820,28.809,23.926
1709252894.393,22.461,-968.262,-972.656,-18.066,47.852
1709252894.397,30.273,-975.098,-971.191,2.441,1.953
1709252894.401,1.953,-963.867,-971.191,44.434,-41.504
1709252894.405,14.648,-915.039,-972.168,6.836,54.688
1709252894.409,35.645,-943.359,-965.820,-12.695,39.551
1709252894.412,5.859,-985.840,-973.145,16.602,-29.297
1709252894.416,11.230,-930.176,-956.543,34.180,14.160
1709252894.420,37.598,-741.699,-743.164,17.578,45.410
1709252894.424,19.043,-677.734,-619.141,-22.949,46.875
1709252894.428,18.555,-819.824,-772.461,-47.363,21.973
1709252894.432,39.062,-866.699,-819.336,-12.207,27.344
1709252894.436,33.203,-686.035,-553.711,16.113,64.453
1709252894.439,49.316,-614.746,-414.551,14.648,65.918
1709252894.443,49.316,-717.773,-534.180,13.672,44.434
1709252894.447,39.062,-972.168,-906.738,15.625,19.043
1709252894.451,16.113,-749.023,-710.449,22.949,54.688
1709252894.455,15.625,-219.238,72.266,9.277,53.711
1709252894.457,27.344,-307.129,145.020,-2.441,39.062
1709252894.461,10.254,-434.570,-21.484,3.906,15.625
1709252894.465,33.691,-174.805,298.828,40.527,-0.977
1709252894.469,42.969,23.926,658.691,39.062,27.832
1709252894.473,38.574,-328.125,276.855,3.906,-7.324
1709252894.477,41.992,-712.402,-326.172,19.531,10.742
1709252894.481,10.742,-628.418,-299.805,41.992,29.785
1709252894.484,2.441,-365.234,98.145,23.926,16.113
1709252894.488,20.996,-478.516,78.125,10.742,86.426
1709252894.492,7.812,-992.676,-630.371,4.395,35.156
1709252894.496,28.320,-771.484,-519.531,36.621,-11.230
1709252894.500,72.266,-259.277,265.137,76.172,3.906
1709252894.501,42.480,-373.047,315.430,41.016,3.906
1709252894.505,-10.254,-570.312,26.855,-14.160,4.395
1709252894.509,-5.371,-407.227,187.988,0.000,1.953
1709252894.513,0.000,-213.379,557.617,30.762,38.086
1709252894.517,-8.301,-318.848,541.992,22.949,-20.020
1709252894.521,-1.465,-666.016,8.301,-5.859,-91.309
1709252894.525,17.090,-786.621,-331.543,-5.859,-41.504
1709252894.528,50.781,-611.816,-128.906,32.715,-5.371
1709252894.532,69.824,-686.523,-164.062,15.625,35.156
1709252894.536,36.133,-620.605,-206.543,-25.391,54.688
1709252894.540,20.996,-374.512,51.270,-18.066,-11.230
1709252894.544,22.949,-248.047,309.570,20.996,18.555
1709252894.547,15.625,-178.711,480.469,30.762,39.551
1709252894.551,37.109,-243.164,339.355,20.020,25.879
1709252894.555,41.016,-232.422,213.867,16.602,34.668
1709252894.559,18.555,-375.488,17.090,19.531,43.945
1709252894.563,24.902,-461.426,-132.812,26.367,24.902
1709252894.567,32.227,-509.277,-306.152,8.789,-7.324
1709252894.571,-1.953,-791.016,-797.852,-7.324,12.207
1709252894.574,1.953,-955.078,-990.723,16.113,15.137
1709252894.578,34.668,-895.508,-941.895,49.316,-13.672
1709252894.582,38.574,-580.078,-668.945,53.223,27.832
1709252894.586,22.949,-596.191,-621.582,33.203,16.602
1709252894.590,3.418,-802.734,-914.551,26.855,25.879
1709252894.591,0.977,-702.637,-814.453,34.180,23.926
1709252894.595,5.859,-521.973,-495.117,19.531,2.441
1709252894.599,17.090,-628.418,-558.594,0.000,29.785
1709252894.603,24.902,-943.359,-927.734,0.488,2.930
1709252894.607,41.992,-872.070,-887.695,22.949,-7.324
1709252894.611,45.410,-702.637,-586.426,23.926,14.648
1709252894.615,20.508,-830.566,-620.605,-11.719,11.230
1709252894.618,14.648,-981.934,-925.293,-31.250,31.738
1709252894.622,15.137,-861.816,-828.613,-8.301,36.133
1709252894.626,6.348,-371.094,-27.832,13.184,10.742
1709252894.630,18.066,-243.652,370.605,1.465,8.789
1709252894.634,28.809,-428.223,153.809,-13.672,11.230
1709252894.636,16.113,-321.289,172.852,-13.672,53.711
1709252894.640,6.348,-61.035,533.691,3.418,89.355
1709252894.644,15.137,-154.297,504.883,27.344,31.250
1709252894.648,13.184,-377.441,113.770,1.953,57.617
1709252894.652,16.602,-395.996,-64.453,-4.883,97.168
1709252894.656,20.996,-463.379,-161.621,42.480,49.805
1709252894.660,22.949,-691.895,-467.773,47.852,53.711
1709252894.663,17.578,-977.051,-915.039,22.461,41.504
1709252894.667,-9.277,-932.129,-994.629,8.301,-38.086
1709252894.671,-0.977,-601.562,-559.082,32.227,5.371
1709252894.675,0.977,-386.230,-56.152,57.617,52.734
1709252894.679,-21.484,-376.465,61.523,33.691,30.273
1709252894.681,-11.719,-342.285,114.258,24.414,57.129
1709252894.685,17.090,-340.332,163.086,50.293,26.367
1709252894.689,19.043,-281.738,285.645,54.199,32.227
1709252894.693,23.926,-209.473,382.324,33.203,36.133
1709252894.697,31.738,-312.012,206.543,8.789,-4.883
1709252894.701,31.250,-537.598,-125.488,-14.160,8.789
1709252894.705,53.711,-811.523,-494.141,-3.418,52.246
1709252894.708,64.453,-589.844,-319.824,17.090,83.496
1709252894.712,40.527,-212.891,199.219,-21.484,51.270
1709252894.716,34.180,-531.250,-25.879,-38.086,-34.668
1709252894.720,30.762,-576.172,-71.289,11.719,-11.719
1709252894.724,23.438,-121.094,555.176,22.461,-10.742
1709252894.756,7.812,12.207,866.211,-21.973,-19.531
1709252894.760,-4.395,-124.512,732.422,-30.273,62.988
1709252894.764,11.719,-190.430,651.855,-2.930,-11.230
1709252894.768,27.344,49.805,890.625,11.719,-35.156
1709252894.772,6.348,194.824,-927.246,3.906,56.152
1709252894.776,-3.906,-268.555,713.379,-8.789,103.516
1709252894.780,8.789,-584.961,234.863,2.441,91.309
1709252894.783,9.766,-168.457,591.309,38.086,46.875
1709252894.787,23.438,82.031,-993.164,37.109,77.148
1709252894.791,23.926,-326.660,520.996,24.902,50.293
1709252894.795,3.906,-634.277,-54.688,32.227,2.930
1709252894.799,20.020,-332.031,238.770,28.320,33.203
1709252894.786,27.832,-385.742,318.359,10.742,30.273
1709252894.790,3.906,-850.586,-328.613,-14.648,-39.551
1709252894.794,-15.137,-916.016,-584.961,-5.371,14.160
1709252894.798,-27.832,-621.094,-166.992,36.621,50.781
1709252894.802,-38.086,-500.000,163.574,24.414,20.996
1709252894.806,-31.738,-756.836,-51.758,7.812,44.434
1709252894.810,-41.504,-999.023,-573.730,7.812,18.066
1709252894.813,-37.598,-887.695,-560.547,21.973,15.137
1709252894.817,-20.996,-724.609,-133.789,41.992,78.125
1709252894.821,-30.273,-827.637,-194.336,19.043,48.340
1709252894.825,-38.086,-870.117,-394.043,9.766,41.992
1709252894.829,-38.086,-836.914,-411.133,42.969,49.316
1709252894.831,-17.578,-852.051,-439.453,59.570,-40.039
1709252894.835,9.766,-959.473,-757.812,28.320,-41.504
1709252894.839,5.371,-956.055,-843.262,10.742,-3.906
1709252894.843,11.230,-927.246,-769.043,14.648,-38.574
1709252894.847,24.902,-918.457,-700.195,15.625,-18.555
1709252894.851,15.137,-881.836,-603.027,7.324,20.996
1709252894.855,-2.930,-874.023,-699.707,0.977,34.180
1709252894.858,14.160,-733.398,-625.000,6.348,75.684
1709252894.862,48.340,-766.113,-623.047,22.949,89.355
1709252894.866,16.602,-899.414,-868.164,6.348,57.617
1709252894.870,4.395,-674.316,-740.234,-18.066,48.828
1709252894.874,3.418,-701.172,-799.316,-12.695,69.824
1709252894.877,0.000,-828.613,-962.891,10.254,83.496
1709252894.881,58.594,-774.414,-972.168,51.758,18.555
1709252894.885,60.547,-808.105,-967.285,42.480,-33.691
1709252894.889,22.461,-949.219,-972.168,21.484,-35.156
1709252894.893,18.066,-973.633,-971.191,26.855,-25.879
1709252894.897,13.672,-967.285,-971.191,24.414,51.758
1709252894.901,10.742,-971.680,-971.191,-6.836,62.500
1709252894.904,-2.930,-970.703,-971.191,-30.762,19.043
1709252894.908,5.371,-971.680,-971.191,-37.598,24.902
1709252894.912,29.785,-969.727,-971.191,-31.738,53.711
1709252894.916,45.898,-968.262,-971.191,-3.418,32.715
1709252894.920,27.832,-971.191,-971.191,-12.695,7.324
1709252894.921,7.812,-971.191,-971.191,-18.066,-33.691
1709252894.925,22.461,-970.703,-971.191,23.926,-17.090
1709252894.929,14.648,-970.703,-971.191,45.410,-0.977
1709252894.933,11.719,-971.191,-971.680,7.812,-17.578
1709252894.937,23.438,-971.191,-969.727,-21.973,47.363
1709252894.941,23.438,-971.191,-975.586,-20.508,39.551
1709252894.945,18.555,-971.191,-957.520,1.953,0.977
1709252894.948,26.367,-970.703,-939.941,20.020,-5.859
1709252894.952,41.504,-965.332,-968.750,5.371,16.602
1709252894.956,23.438,-992.676,-967.285,24.414,26.855
1709252894.960,13.184,-857.422,-563.965,54.199,15.625
1709252894.964,29.785,-829.590,-340.820,43.945,31.738
1709252894.966,12.207,-957.520,-445.312,0.488,38.086
1709252894.970,-5.371,-890.137,-303.711,-41.016,38.574
1709252894.974,20.020,-732.422,16.113,-9.766,41.016
1709252894.978,38.086,-622.559,302.246,14.160,60.547
1709252894.982,50.293,-614.258,364.258,10.254,49.316
1709252894.986,48.828,-796.875,144.531,-3.906,62.012
1709252894.990,31.250,-907.227,8.301,-12.207,82.031
1709252894.993,34.668,-956.543,-166.016,32.715,10.254
1709252894.997,20.508,-860.352,-105.469,41.504,30.762
1709252895.001,-0.977,-665.039,275.879,-7.812,82.520
1709252895.005,20.996,-740.234,264.160,-11.230,61.035
1709252895.009,53.711,-716.309,352.539,19.531,36.621
1709252895.012,38.574,-736.816,341.797,21.973,13.184
1709252895.016,10.254,-825.684,177.734,0.488,46.875
1709252895.020,18.555,-902.344,-30.273,10.742,70.801
1709252895.024,45.410,-913.574,-117.188,45.898,37.109
1709252895.028,57.129,-774.414,172.852,54.688,0.977
1709252895.032,40.527,-903.809,-34.668,39.551,-16.602
1709252895.036,38.574,-991.211,-548.340,33.203,40.039
1709252895.039,74.219,-960.449,-619.629,66.895,50.781
1709252895.043,65.430,-833.984,-106.445,58.105,22.949
1709252895.047,7.324,-836.914,85.938,3.418,52.734
1709252895.051,-19.043,-973.145,-390.625,-16.113,13.184
1709252895.055,6.836,-972.168,-606.934,22.949,13.672
1709252895.057,41.504,-967.773,-450.195,54.199,20.508
1709252895.061,48.340,-972.168,-620.117,21.973,-29.297
1709252895.065,28.320,-971.191,-916.504,-15.625,14.648
1709252895.069,16.113,-971.191,-990.234,-3.906,43.945
1709252895.073,37.109,-971.191,-799.805,39.062,25.879
1709252895.077,36.621,-971.191,-822.266,21.484,16.602
1709252895.081,25.391,-971.191,-985.840,-9.766,13.672
1709252895.084,34.180,-971.191,-974.121,17.578,36.621
1709252895.088,37.598,-971.191,-745.117,59.082,68.848
1709252895.092,31.738,-971.191,-596.191,41.016,62.500
1709252895.096,32.715,-971.191,-821.777,4.883,29.785
1709252895.100,23.926,-971.191,-925.781,21.973,29.785
1709252895.116,20.508,-971.191,-841.309,49.805,-7.324
1709252895.120,50.781,-971.191,-824.707,51.758,-11.230
1709252895.124,47.852,-971.191,-952.637,34.180,24.902
1709252895.128,14.648,-971.191,-988.281,24.414,53.711
1709252895.132,23.438,-971.191,-914.551,30.273,99.121
1709252895.136,58.594,-971.191,-903.320,62.500,39.062
1709252895.140,59.570,-971.680,-974.121,55.664,-21.484
1709252895.143,47.363,-968.262,-971.191,25.391,6.836
1709252895.147,45.898,-971.191,-933.594,62.012,-44.434
1709252895.151,58.105,-970.703,-756.836,85.449,-18.066
1709252895.155,51.758,-841.309,-450.684,41.992,82.520
1709252895.159,11.719,-810.059,-358.887,-0.977,71.289
1709252895.161,5.371,-949.219,-561.035,-4.883,20.020
1709252895.165,13.672,-953.125,-642.090,42.969,-8.789
1709252895.169,6.348,-843.750,-509.277,52.246,-18.066
1709252895.173,17.578,-856.445,-516.602,20.508,10.254
1709252895.177,11.719,-965.332,-776.855,-25.391,23.926
1709252895.181,35.156,-974.121,-961.914,-16.602,3.418
1709252895.185,41.992,-967.773,-956.055,32.227,-7.812
1709252895.188,32.715,-972.168,-941.406,33.203,1.465
1709252895.192,62.012,-967.285,-963.379,41.992,-13.672
1709252895.196,24.902,-979.004,-984.375,35.645,17.578
1709252895.200,19.531,-937.500,-916.992,21.484,40.039
1709252895.204,41.016,-849.121,-747.559,4.395,59.082
1709252895.206,20.996,-911.621,-841.309,17.090,103.516
1709252895.210,24.414,-981.934,-989.746,48.828,74.707
1709252895.214,37.598,-964.355,-958.984,40.039,37.109
1709252895.218,52.246,-964.844,-951.660,12.207,21.484
1709252895.222,51.758,-971.680,-962.402,-4.395,26.855
1709252895.226,29.297,-971.191,-969.238,18.555,41.504
1709252895.230,49.805,-971.191,-977.539,45.410,-2.441
1709252895.233,56.152,-971.680,-583.496,30.273,10.742
1709252895.237,2.930,-967.285,-512.695,-15.625,20.508
1709252895.241,23.926,-982.910,-759.277,-8.301,-7.324
1709252895.245,63.477,-923.828,-131.836,42.480,44.922
1709252895.249,39.551,-900.879,357.422,7.812,9.277
1709252895.251,31.738,-967.285,296.387,-51.270,24.902
1709252895.255,28.809,-987.305,261.719,-59.082,70.312
1709252895.259,16.113,-916.504,389.648,-26.367,59.082
1709252895.263,24.414,-769.043,635.742,11.230,96.680
1709252895.267,40.527,-894.531,493.652,4.883,83.496
1709252895.271,33.203,-992.188,-115.723,-19.531,37.598
1709252895.275,19.531,-962.402,-605.957,-40.527,-17.090
1709252895.278,17.578,-972.168,-599.609,-38.574,-27.344
1709252895.282,18.555,-971.191,-760.254,-10.742,38.574
1709252895.286,-4.883,-971.191,-997.070,-19.531,75.195
1709252895.290,-4.395,-971.191,-962.402,-23.438,-1.465
1709252895.294,20.020,-971.191,-969.238,30.273,-50.293
1709252895.296,25.391,-971.191,-972.168,70.312,-24.414
1709252895.300,20.508,-971.191,-971.191,56.152,-28.809
1709252895.304,-10.254,-971.191,-971.191,0.488,13.184
1709252895.308,-24.414,-971.191,-971.191,-6.348,52.246
1709252895.312,24.902,-971.191,-971.191,43.457,29.297
1709252895.316,26.367,-971.191,-971.191,53.223,32.227
1709252895.320,-9.766,-971.191,-971.191,1.465,38.086
1709252895.323,-1.953,-971.191,-971.191,-42.969,-8.301
1709252895.327,-18.555,-971.191,-971.191,-46.875,53.223
1709252895.331,-50.293,-971.191,-971.191,-56.641,106.934
1709252895.335,-24.902,-971.191,-971.191,-75.684,55.664
1709252895.339,15.625,-971.191,-971.191,-75.684,-3.418
1709252895.342,37.109,-971.191,-971.191,-2.930,6.836
1709252895.346,34.668,-971.191,-971.191,12.207,4.395
1709252895.350,1.465,-971.191,-971.191,-56.152,-35.156
1709252895.354,-25.879,-971.191,-971.191,-100.098,15.625
1709252895.358,-0.977,-971.191,-971.191,-71.289,102.051
1709252895.362,26.367,-971.191,-971.191,4.395,49.316
1709252895.366,21.973,-971.191,-971.191,-11.719,15.625
1709252895.369,25.391,-971.191,-971.191,-53.223,51.270
1709252895.373,41.504,-971.191,-971.191,-44.434,20.020
1709252895.377,58.105,-971.191,-971.680,-30.762,36.133
1709252895.381,53.223,-971.191,-968.750,-64.453,104.004
1709252895.385,62.500,-971.191,-968.262,-33.203,79.102
1709252895.386,65.918,-971.191,-986.328,31.738,39.551
1709252895.390,62.012,-971.191,-834.473,18.555,65.430
1709252895.394,48.828,-971.191,-830.078,-39.062,42.480
1709252895.398,-7.324,-971.191,-985.840,-114.746,70.801
1709252895.402,5.371,-971.191,-969.727,-145.020,96.680
1709252895.406,74.219,-971.191,-968.262,-139.160,80.566
1709252895.410,79.102,-971.191,-971.680,-163.086,48.340
1709252895.413,41.992,-971.191,-971.191,-216.797,17.578
1709252895.417,-2.930,-971.191,-971.191,-246.094,21.484
1709252895.421,-29.297,-971.191,-971.191,-229.980,63.965
1709252895.425,5.371,-971.191,-971.191,-184.570,73.242
1709252895.429,32.227,-971.191,-971.191,-184.082,21.973
1709252895.431,23.438,-971.191,-971.191,-211.914,46.875
1709252895.435,12.207,-971.191,-971.191,-178.223,87.891
1709252895.439,12.207,-971.191,-971.191,-171.387,-19.531
1709252895.443,2.441,-971.191,-971.191,-189.453,-0.977
1709252895.447,-20.020,-971.191,-971.191,-187.988,98.145
1709252895.451,-46.875,-971.191,-971.191,-197.754,84.473
1709252895.455,-30.762,-971.191,-971.191,-152.344,43.945
1709252895.458,-18.555,-971.191,-971.191,-123.047,28.809
1709252895.462,-34.668,-971.191,-971.191,-166.016,33.691
1709252895.466,-23.438,-971.191,-971.191,-150.391,24.902
1709252895.470,-3.418,-971.191,-971.191,-125.977,4.395
1709252895.474,34.668,-971.191,-971.680,-127.930,-1.953
1709252895.478,51.270,-971.191,-969.727,-112.305,45.898
1709252895.482,39.062,-971.191,-966.309,-105.469,9.277
1709252895.486,4.883,-971.191,-979.980,-68.359,9.277
1709252895.490,-7.812,-971.191,-890.625,-32.227,28.809
1709252895.494,7.812,-971.680,-688.965,-20.508,-34.668
1709252895.498,18.066,-968.262,-822.266,-24.414,-34.180
1709252895.502,24.414,-975.098,-864.258,-7.324,-25.391
1709252895.505,20.508,-960.938,-90.820,19.531,11.719
1709252895.509,11.230,-867.676,591.309,21.973,48.828
1709252895.513,0.000,-913.574,573.730,-12.207,43.457
1709252895.517,2.930,-899.902,642.090,15.625,36.621
1709252895.521,28.320,-565.918,960.449,60.547,9.766
1709252895.536,41.504,-312.988,-991.699,71.777,44.922
1709252895.540,17.090,-472.656,990.234,76.172,40.039
1709252895.544,-20.020,-621.582,-1000.000,69.336,37.109
1709252895.548,-32.227,-350.586,999.023,100.586,48.340
1709252895.552,-0.488,-93.262,-997.070,135.742,32.715
1709252895.556,12.695,-403.320,969.238,108.398,24.414
1709252895.560,-14.160,-549.805,976.074,75.684,67.383
1709252895.563,-6.836,-163.086,-995.605,104.004,47.363
1709252895.567,5.371,79.102,997.559,131.836,20.996
1709252895.571,7.324,-136.230,999.512,124.512,68.359
1709252895.575,4.883,-194.336,999.512,90.820,7.812
1709252895.579,-20.020,59.082,999.512,98.633,-6.348
1709252895.581,-55.176,106.445,999.512,129.395,23.926
1709252895.585,-42.480,97.168,999.512,148.926,27.832
1709252895.589,-13.184,166.016,999.512,131.348,31.738
1709252895.593,-18.066,161.133,999.512,100.586,44.922
1709252895.597,-26.855,180.664,997.559,106.934,45.898
1709252895.601,-26.367,84.961,-999.023,117.188,-22.461
1709252895.605,-26.855,-30.273,987.793,102.539,-15.137
1709252895.608,-9.766,2.930,953.125,87.891,41.016
1709252895.612,0.488,-75.684,797.363,114.746,2.441
1709252895.616,16.602,-284.180,494.141,134.766,-20.996
1709252895.620,26.367,105.957,735.352,121.094,44.434
1709252895.624,5.371,404.297,-966.309,100.586,48.828
1709252895.626,48.340,343.262,988.281,102.539,-0.977
1709252895.630,77.148,566.406,986.816,140.137,25.879
1709252895.634,62.012,645.508,-990.234,120.605,-11.719
1709252895.638,55.176,443.359,947.266,94.727,-20.508
1709252895.642,15.625,291.992,674.316,101.074,26.367
1709252895.646,20.508,239.258,521.484,117.676,-7.812
1709252895.650,48.340,198.730,415.039,123.047,-9.766
1709252895.653,26.855,163.086,274.414,71.777,33.203
1709252895.657,32.715,-391.602,-434.570,65.430,77.148
1709252895.661,44.922,-553.223,-852.539,119.141,43.457
1709252895.665,37.598,38.086,-184.082,112.793,6.836
1709252895.669,20.508,-39.062,-58.105,83.008,49.316
1709252895.671,12.695,-206.055,-259.766,61.523,105.957
1709252895.675,16.113,-8.789,-13.672,70.312,89.355
1709252895.679,40.527,145.508,333.008,110.352,16.602
1709252895.683,52.246,-13.672,250.000,94.727,-4.883
1709252895.687,13.184,-270.996,-129.883,71.777,19.043
1709252895.691,1.953,-411.133,-360.352,76.660,41.016
1709252895.695,18.066,-365.234,-273.438,78.613,14.648
1709252895.698,5.859,-477.051,-289.551,79.102,29.785
1709252895.702,18.555,-803.223,-727.051,59.570,70.801
1709252895.706,44.434,-551.270,-568.848,78.125,56.152
1709252895.710,46.875,-151.367,90.820,95.703,38.574
1709252895.714,30.762,-137.695,317.871,81.543,17.090
1709252895.716,24.414,-237.793,205.566,77.637,3.906
1709252895.720,39.551,-180.176,234.375,70.801,3.418
1709252895.724,49.316,-45.410,449.707,89.355,8.301
1709252895.728,96.191,18.066,589.355,110.840,13.672
1709252895.732,93.750,96.680,661.133,72.754,81.055
1709252895.736,44.434,-110.352,373.535,18.555,59.082
1709252895.740,33.203,-360.840,-29.297,20.020,0.000
1709252895.743,42.969,-570.801,-332.520,39.062,16.113
1709252895.747,53.223,-538.574,-417.969,18.066,32.715
1709252895.751,59.570,-217.285,-94.727,22.461,67.871
1709252895.755,68.359,-329.102,-154.297,58.594,20.996
1709252895.759,74.707,-269.043,-75.684,78.125,21.973
1709252895.762,67.383,-38.574,228.027,85.449,44.434
1709252895.766,30.762,-221.680,20.996,55.176,-0.977
1709252895.770,17.578,-722.656,-658.691,39.551,-16.602
1709252895.774,38.086,-720.215,-809.082,66.406,24.902
1709252895.778,39.551,-282.227,-279.785,81.055,41.016
1709252895.782,36.621,-402.832,-308.594,59.082,33.203
1709252895.786,22.461,-814.941,-803.223,55.176,65.430
1709252895.789,25.879,-857.422,-886.230,87.891,24.902
1709252895.793,37.109,-397.461,-287.598,85.938,-11.719
1709252895.797,19.043,-182.129,210.938,36.133,1.465
1709252895.801,20.020,-337.891,159.668,22.461,38.574
1709252895.805,41.992,-356.934,161.621,32.715,8.301
1709252895.806,38.086,-31.250,668.945,40.039,-3.418
1709252895.810,33.691,119.141,-978.027,42.480,4.883
1709252895.814,48.340,-103.027,805.664,26.367,-20.508
1709252895.818,47.852,-66.895,800.293,56.641,8.789
1709252895.822,49.316,214.355,996.094,79.590,18.066
1709252895.826,52.246,182.617,-948.242,45.898,-24.902
1709252895.830,30.273,-392.578,494.141,-0.488,-11.230
1709252895.833,25.391,-585.938,-42.480,0.977,57.129
1709252895.837,50.781,49.805,610.352,38.086,10.254
1709252895.841,58.594,336.914,-958.496,56.152,3.906
1709252895.845,36.621,252.441,980.957,54.688,35.645
1709252895.849,19.043,213.867,961.426,58.594,-12.695
1709252895.866,24.414,397.949,990.234,60.059,45.410
1709252895.870,30.762,403.809,971.191,51.270,20.996
1709252895.874,26.855,182.129,795.410,37.598,-42.480
1709252895.878,20.508,88.867,511.230,35.645,-7.324
1709252895.882,15.137,141.602,465.820,82.520,40.039
1709252895.886,14.648,-67.383,297.852,104.492,38.086
1709252895.890,13.672,-464.844,-270.020,60.547,4.883
1709252895.893,22.949,-519.043,-571.289,52.734,-24.414
1709252895.897,28.809,-378.906,-443.848,80.078,29.785
1709252895.901,19.531,-357.910,-285.645,83.984,62.988
1709252895.905,20.020,-314.941,-168.457,63.965,84.961
1709252895.909,5.371,-100.586,83.008,40.527,74.219
1709252895.911,-8.301,-231.934,-29.785,17.578,19.531
1709252895.915,9.766,-232.910,-57.617,33.203,40.039
1709252895.919,45.898,-46.387,179.199,73.242,28.809
1709252895.923,47.363,26.367,291.016,56.152,25.879
1709252895.927,36.133,-49.805,172.852,18.066,88.379
1709252895.931,26.367,-152.344,26.367,25.391,96.680
1709252895.935,28.809,-139.160,24.414,38.574,55.664
1709252895.938,53.711,24.902,192.871,29.297,81.543
1709252895.942,37.598,9.277,215.820,28.320,55.664
1709252895.946,18.066,-389.160,-234.863,22.949,20.020
1709252895.950,26.367,-277.832,-174.805,32.227,0.977
1709252895.954,28.809,252.930,546.875,38.086,-20.996
1709252895.956,27.832,261.719,742.676,41.504,32.715
1709252895.960,23.926,112.793,618.164,62.988,51.270
1709252895.964,24.902,485.840,889.160,66.895,46.875
1709252895.968,47.852,708.984,-950.684,55.176,20.020
1709252895.972,35.645,397.949,877.930,44.434,-14.648
1709252895.976,24.414,50.293,479.004,17.578,10.742
1709252895.980,27.832,114.258,387.207,21.484,65.918
1709252895.983,33.691,346.680,658.203,40.527,34.668
1709252895.987,40.527,58.105,374.023,16.602,5.371
1709252895.991,36.621,-434.082,-357.422,14.160,62.500
1709252895.995,28.320,-168.945,-241.699,64.453,70.312
1709252895.999,39.551,126.953,272.949,79.102,66.406
1709252896.002,40.527,-2.441,252.930,61.035,62.988
1709252896.006,16.113,-454.590,-355.957,40.527,-6.348
1709252896.010,-8.301,-678.711,-787.598,28.320,-8.789
1709252896.014,7.324,-458.496,-540.527,42.969,27.344
1709252896.018,14.160,-574.707,-569.824,31.738,20.020
1709252896.022,-12.695,-900.879,-924.805,0.977,0.977
1709252896.026,7.324,-990.723,-1000.000,31.250,-20.020
1709252896.029,55.664,-832.520,-783.691,62.988,1.953
1709252896.033,74.707,-867.188,-795.898,48.340,0.977
1709252896.037,45.898,-787.598,-754.883,13.184,60.059
1709252896.041,31.250,-507.812,-291.992,0.000,78.613
1709252896.045,18.555,-552.734,-123.535,6.348,-11.719
1709252896.047,13.672,-371.582,277.832,7.324,48.828
1709252896.051,29.785,-194.824,644.531,10.254,48.828
1709252896.055,19.043,-298.828,574.707,7.324,6.348
1709252896.059,25.391,-361.328,512.207,-7.812,35.156
1709252896.063,46.875,-292.969,672.363,4.395,12.695
1709252896.067,42.969,-331.543,737.793,26.367,-3.906
1709252896.071,39.551,-368.652,694.336,20.996,-7.324
1709252896.074,45.410,-421.387,700.684,25.879,15.137
1709252896.078,30.273,-595.703,599.121,42.480,68.359
1709252896.082,29.785,-198.730,871.094,61.035,22.461
1709252896.086,19.043,54.688,-970.703,52.246,-15.137
1709252896.090,21.973,-110.840,984.375,11.719,6.836
1709252896.106,56.152,49.316,-999.023,26.855,15.137
1709252896.110,40.039,249.023,999.512,52.734,3.906
1709252896.114,18.555,89.844,999.512,20.508,-9.277
1709252896.118,25.391,-129.883,999.512,21.484,20.996
1709252896.122,21.973,-26.367,-1000.000,66.406,48.828
1709252896.126,27.344,-26.855,975.586,66.406,2.930
1709252896.130,37.598,-164.551,-933.594,39.551,13.672
1709252896.133,29.785,-641.602,708.008,4.883,50.293
1709252896.137,9.766,-777.344,507.324,-23.926,49.316
1709252896.141,14.648,-92.285,984.863,6.836,35.645
1709252896.145,20.996,-18.066,-981.445,29.297,-3.906
1709252896.149,18.066,-208.984,981.445,16.602,34.668
1709252896.136,17.090,-58.105,-997.070,12.695,108.887
1709252896.140,0.000,152.344,999.512,31.250,86.914
1709252896.144,0.977,106.445,999.512,35.156,43.945
1709252896.148,13.672,-41.504,999.512,21.973,48.340
1709252896.152,14.160,-20.996,999.512,14.160,34.180
1709252896.156,20.508,-29.785,999.512,38.574,14.648
1709252896.160,38.574,-77.637,999.512,48.340,22.461
1709252896.163,36.133,-6.348,999.512,16.602,18.555
1709252896.167,18.066,82.031,999.512,4.395,1.953
1709252896.171,14.648,268.066,999.512,18.555,11.719
1709252896.175,31.738,161.621,999.512,49.805,14.648
1709252896.179,36.621,-184.082,999.512,64.453,20.020
1709252896.182,15.137,47.852,999.512,50.781,-22.461
1709252896.186,13.184,344.238,999.512,87.402,14.648
1709252896.190,17.578,456.543,999.512,108.887,65.918
1709252896.194,2.441,532.715,999.512,55.664,43.457
1709252896.198,-4.883,466.797,999.512,25.391,33.691
1709252896.202,11.719,241.211,999.512,28.809,14.160
1709252896.206,32.227,31.250,999.512,62.988,73.242
1709252896.209,30.273,220.215,999.512,78.125,95.215
1709252896.213,11.719,454.102,999.512,46.387,18.066
1709252896.217,1.953,250.977,999.512,43.945,6.836
1709252896.221,24.414,258.789,-998.535,75.195,26.367
1709252896.225,27.344,489.258,979.980,68.848,30.762
1709252896.227,0.977,508.789,-954.590,30.273,45.898
1709252896.231,-8.789,112.793,832.520,11.719,53.711
1709252896.235,0.977,-88.379,594.727,34.668,45.898
1709252896.239,22.461,309.082,884.277,47.363,20.020
1709252896.243,27.832,521.973,-905.273,10.254,36.133
1709252896.247,25.391,36.133,677.246,3.418,33.203
1709252896.251,0.488,-349.609,62.988,26.855,36.133
1709252896.254,-23.438,160.645,480.469,32.227,50.781
1709252896.258,13.184,463.867,999.023,37.598,26.367
1709252896.262,42.480,215.820,746.094,23.926,43.457
1709252896.266,28.809,67.871,441.895,-3.418,87.891
1709252896.270,23.926,257.324,638.184,15.625,58.105
1709252896.286,30.273,377.441,871.094,29.297,33.691
1709252896.290,29.297,101.562,505.859,-1.953,0.977
1709252896.294,21.484,-118.652,60.059,25.391,14.648
1709252896.298,38.086,28.320,190.430,78.125,58.594
1709252896.302,53.223,62.500,319.336,75.195,38.574
1709252896.306,38.086,-463.379,-261.719,63.477,69.336
1709252896.310,30.273,-862.793,-964.355,21.973,47.852
1709252896.313,43.457,-446.289,-647.949,1.953,13.184
1709252896.317,57.129,-209.473,-119.141,20.020,-3.906
1709252896.321,41.016,-285.156,-52.734,-1.953,-3.906
1709252896.325,36.133,-305.176,-117.188,-24.414,2.930
1709252896.329,26.367,-225.586,-6.836,-11.719,55.176
1709252896.331,27.344,-199.707,159.180,33.691,39.062
1709252896.335,49.316,-222.656,209.473,49.316,5.859
1709252896.339,46.875,-191.895,222.168,16.602,55.664
1709252896.343,21.973,-241.211,183.594,31.250,55.176
1709252896.347,12.207,-300.781,206.543,71.289,5.859
1709252896.351,12.695,-349.609,238.281,74.707,11.230
1709252896.355,10.742,-447.754,127.441,51.270,22.949
1709252896.358,20.996,-544.434,-64.941,30.762,-0.977
1709252896.362,19.043,-564.453,-56.152,41.992,29.297
1709252896.366,20.020,-699.219,-173.340,58.105,7.812
1709252896.370,22.461,-336.914,164.062,43.945,6.836
1709252896.374,3.906,31.250,697.266,35.156,60.547
1709252896.376,33.203,14.160,798.828,73.242,53.223
1709252896.380,74.219,219.727,929.688,90.332,37.109
1709252896.384,24.414,389.648,-973.633,41.504,32.715
1709252896.388,8.789,219.727,916.992,3.906,37.109
1709252896.392,13.184,25.391,591.309,-0.488,73.730
1709252896.396,19.531,-24.414,418.457,30.273,51.758
1709252896.400,35.645,-75.684,292.480,36.621,-9.766
1709252896.403,16.113,-68.848,204.102,9.277,32.227
1709252896.407,23.438,-476.074,-344.727,6.836,80.566
1709252896.411,56.152,-439.941,-455.078,41.504,74.707
1709252896.415,46.875,33.691,162.598,65.430,23.438
1709252896.419,16.602,-128.418,130.859,33.691,-25.391
1709252896.421,5.371,-369.141,-230.957,-5.859,31.738
1709252896.425,10.254,-180.664,-124.512,11.719,34.180
1709252896.429,6.836,109.863,337.891,29.785,22.461
1709252896.433,20.020,111.816,469.238,19.531,104.004
1709252896.437,32.227,-121.582,155.762,7.812,61.523
1709252896.441,12.207,-307.617,-155.762,20.996,59.082
1709252896.445,15.625,-190.430,-41.992,60.547,73.730
1709252896.448,29.785,-296.875,-69.336,62.500,26.367
1709252896.452,23.438,-745.605,-675.293,23.926,36.133
1709252896.456,33.203,-568.359,-647.461,2.441,28.809
1709252896.460,38.574,-232.910,-93.262,21.484,0.977
1709252896.464,34.668,-163.574,156.738,18.066,8.789
1709252896.467,39.551,-260.254,53.711,14.648,20.020
