timestamps,TP9,AF7,AF8,TP10,Right AUX
1706146196.727,3.418,21.973,125.488,336.426,-790.527
1706146196.731,34.180,6.836,-19.043,-183.105,107.422
1706146196.735,52.734,0.977,-78.613,-352.051,-1000.000
1706146196.739,29.785,20.996,69.824,169.434,-250.488
1706146196.743,6.836,30.762,149.414,430.664,-805.176
1706146196.747,39.062,9.766,12.695,-71.289,378.906
1706146196.751,65.918,-4.395,-96.680,-403.320,-1000.000
1706146196.754,26.855,12.207,35.645,38.086,-576.172
1706146196.758,-0.488,28.320,149.414,441.406,945.801
1706146196.762,29.297,18.066,47.852,77.637,730.957
1706146196.766,60.547,4.395,-82.031,-375.000,-772.949
1706146196.770,38.574,12.695,-1.953,-116.699,-947.266
1706146196.786,12.695,25.879,116.211,369.141,433.594
1706146196.790,9.766,22.949,99.121,246.094,-898.438
1706146196.794,35.156,5.371,-46.387,-268.555,-183.105
1706146196.798,45.410,4.395,-57.129,-254.883,-1000.000
1706146196.802,20.996,22.461,76.660,263.184,-31.250
1706146196.806,4.883,25.391,123.047,371.094,-779.297
1706146196.810,33.691,9.766,-5.859,-156.738,176.758
1706146196.813,51.270,5.859,-75.684,-360.840,-1000.000
1706146196.817,24.414,22.461,55.664,144.531,-340.332
1706146196.821,-3.418,31.250,144.531,424.316,-849.609
1706146196.825,19.531,15.137,32.715,-50.781,465.820
1706146196.829,52.734,-0.488,-83.008,-401.367,-1000.000
1706146196.817,28.809,18.066,28.320,3.906,-683.105
1706146196.821,0.488,33.203,133.789,418.457,814.453
1706146196.825,7.324,21.973,61.035,108.887,865.723
1706146196.829,40.039,6.348,-71.289,-352.051,-602.539
1706146196.833,35.645,11.719,-16.113,-161.621,-1000.000
1706146196.837,8.301,30.273,124.023,333.984,289.062
1706146196.841,3.418,30.273,110.352,271.484,-846.680
1706146196.844,20.996,10.254,-49.316,-251.953,-66.406
1706146196.848,28.809,8.301,-65.918,-305.176,-1000.000
1706146196.852,6.836,22.461,79.590,217.773,-116.211
1706146196.856,-5.371,30.273,141.113,390.137,-780.762
1706146196.860,32.715,17.090,-7.324,-126.953,247.559
1706146196.862,48.340,-0.977,-103.516,-384.766,-1000.000
1706146196.866,11.719,14.160,51.270,100.586,-420.410
1706146196.870,0.488,27.344,152.344,441.406,-903.320
1706146196.874,21.973,10.742,36.621,6.348,543.945
1706146196.878,38.574,-4.883,-88.379,-393.555,-976.562
1706146196.882,19.531,8.301,13.184,-28.320,-776.367
1706146196.886,-5.371,22.949,137.207,411.621,689.941
1706146196.889,1.465,17.090,74.707,148.926,960.938
1706146196.893,40.039,1.953,-73.730,-346.680,-462.891
1706146196.897,23.926,7.812,-26.367,-219.727,-1000.000
1706146196.901,-16.113,24.902,107.910,291.504,171.387
1706146196.905,-10.742,36.133,120.605,293.457,-811.523
1706146196.906,19.043,20.996,-23.438,-229.492,39.551
1706146196.910,26.367,6.836,-74.219,-340.332,-1000.000
1706146196.914,-3.418,27.344,65.918,167.480,-200.684
1706146196.918,-39.551,41.016,139.160,372.070,-792.969
1706146196.922,-28.809,14.160,13.184,-158.203,328.613
1706146196.926,-19.043,1.465,-92.285,-465.820,-1000.000
1706146196.930,-79.590,20.020,28.809,-22.461,-513.184
1706146196.933,-127.930,23.926,133.301,303.711,-992.676
1706146196.937,-151.855,12.207,46.875,-132.812,661.621
1706146196.941,-154.785,-3.418,-71.289,-589.355,-854.004
1706146196.945,-180.664,4.395,9.766,-284.668,-890.137
1706146196.949,-235.352,14.648,132.324,168.457,537.598
1706146196.951,-231.934,6.836,107.910,-30.762,-953.125
1706146196.955,-188.477,-9.277,-31.738,-537.598,-302.246
1706146196.959,-192.383,-11.230,-25.391,-460.938,-1000.000
1706146196.963,-212.891,1.953,115.723,76.660,41.992
1706146196.967,-215.332,5.859,155.273,144.531,-789.062
1706146196.971,-172.852,-10.742,9.766,-374.023,120.117
1706146196.975,-136.230,-17.090,-63.965,-540.039,-1000.000
1706146196.978,-156.738,3.418,83.496,-19.043,-278.320
1706146196.982,-166.992,16.602,178.223,257.324,-815.918
1706146196.986,-132.812,0.977,38.086,-210.449,387.695
1706146196.990,-94.238,-7.812,-76.660,-531.250,-1000.000
1706146196.994,-103.516,9.766,54.199,-85.449,-600.098
1706146196.996,-112.793,16.602,164.062,341.309,911.621
1706146197.000,-90.820,-7.812,74.707,4.395,769.043
1706146197.004,-46.387,-24.902,-69.824,-448.730,-728.027
1706146197.008,-32.715,-9.277,-10.254,-179.199,-976.562
1706146197.012,-52.734,6.836,121.094,313.965,396.973
1706146197.016,-45.410,2.441,105.469,193.359,-886.230
1706146197.020,-0.488,-22.461,-43.457,-317.871,-169.922
1706146197.023,3.418,-24.414,-40.527,-310.547,-1000.000
1706146197.027,-12.207,0.000,104.980,223.145,-44.434
1706146197.031,-10.742,9.766,136.719,350.586,-778.809
1706146197.035,20.996,-5.371,-3.906,-151.367,198.242
1706146197.039,49.805,-8.301,-85.938,-363.281,-1000.000
1706146197.042,22.461,14.648,49.316,133.789,-365.723
1706146197.046,10.742,21.973,144.531,448.242,-864.746
1706146197.050,43.945,4.883,19.043,-20.020,478.516
1706146197.054,71.777,-8.789,-94.727,-394.043,-1000.000
1706146197.058,54.199,6.348,9.277,14.648,-715.820
1706146197.062,42.969,25.391,111.328,453.613,774.902
1706146197.066,65.430,19.531,55.176,166.992,881.836
1706146197.069,92.773,1.465,-71.777,-301.758,-580.566
1706146197.073,87.402,5.859,-31.738,-107.422,-1000.000
1706146197.077,62.988,24.414,95.703,386.230,256.348
1706146197.081,64.453,24.414,102.051,335.449,-836.426
1706146197.085,99.609,3.418,-40.527,-179.688,-31.738
1706146197.101,104.004,0.000,-81.543,-252.441,-1000.000
1706146197.105,75.684,21.973,59.082,268.555,-148.926
1706146197.109,59.570,27.832,125.977,450.195,-783.691
1706146197.113,93.750,10.254,-8.789,-70.801,275.879
1706146197.117,120.605,5.371,-100.586,-331.543,-1000.000
1706146197.121,86.426,24.902,31.738,152.344,-445.312
1706146197.125,62.988,38.086,134.277,493.164,-925.293
1706146197.128,91.797,25.391,27.832,52.246,591.797
1706146197.132,118.652,5.859,-99.609,-348.145,-929.199
1706146197.136,89.844,16.113,2.930,12.207,-811.523
1706146197.140,70.312,39.062,134.766,462.402,655.273
1706146197.144,84.961,34.180,81.055,246.582,979.004
1706146197.146,120.605,16.113,-74.219,-246.094,-432.617
1706146197.150,116.699,23.926,-45.898,-153.809,-1000.000
1706146197.154,83.984,41.016,99.121,346.680,137.695
1706146197.158,72.754,38.574,115.723,371.094,-805.176
1706146197.162,97.656,18.066,-33.203,-144.531,59.570
1706146197.166,112.793,10.742,-85.449,-271.973,-1000.000
1706146197.170,87.891,29.785,59.570,244.629,-227.539
1706146197.173,77.148,37.598,141.602,480.469,-799.316
1706146197.177,100.098,16.113,0.488,-21.484,334.473
1706146197.181,108.887,4.883,-102.539,-335.449,-1000.000
1706146197.185,80.078,26.855,41.992,116.211,-531.250
1706146197.189,64.941,42.969,142.578,499.023,986.328
1706146197.191,83.984,27.832,42.969,105.469,689.941
1706146197.195,113.770,11.230,-88.379,-333.984,-820.312
1706146197.199,102.539,25.391,-7.324,-33.203,-911.133
1706146197.203,78.613,41.016,115.723,436.035,502.930
1706146197.207,78.613,32.715,81.055,275.879,-948.242
1706146197.211,99.609,18.066,-65.430,-225.586,-287.598
1706146197.215,110.352,22.949,-57.617,-182.617,-1000.000
1706146197.218,82.031,40.527,84.961,335.449,23.438
1706146197.222,61.035,41.504,120.117,415.039,-786.621
1706146197.226,92.285,23.926,-14.648,-106.445,131.836
1706146197.230,100.098,15.625,-72.754,-287.109,-1000.000
1706146197.234,69.824,29.297,58.105,208.008,-299.316
1706146197.237,47.852,37.109,140.625,475.586,-830.078
1706146197.241,64.453,18.555,25.391,-6.836,419.922
1706146197.245,106.445,1.953,-92.285,-354.980,-1000.000
1706146197.249,80.078,13.672,24.414,70.312,-627.930
1706146197.253,40.527,30.273,138.184,477.051,882.324
1706146197.257,58.105,22.949,51.270,126.953,796.387
1706146197.261,82.520,7.812,-79.590,-317.871,-685.547
1706146197.264,66.406,16.113,-20.996,-71.777,-1000.000
1706146197.268,43.457,34.668,103.516,396.484,336.426
1706146197.272,38.086,33.691,101.562,284.668,-870.117
1706146197.276,63.477,10.742,-42.969,-227.051,-120.117
1706146197.280,70.312,0.977,-62.988,-239.258,-1000.000
1706146197.282,41.016,15.625,76.660,270.996,-89.844
1706146197.286,19.531,24.414,135.254,393.555,-780.762
1706146197.290,48.340,10.254,0.977,-125.000,224.609
1706146197.294,72.266,3.906,-85.938,-356.445,-1000.000
1706146197.298,41.016,22.461,47.852,133.789,-366.699
1706146197.302,23.438,34.180,140.625,447.754,-867.188
1706146197.306,57.617,20.508,24.414,-2.930,512.695
1706146197.309,84.961,7.812,-102.539,-384.277,-1000.000
1706146197.313,44.922,20.508,14.160,-4.883,-726.074
1706146197.317,21.973,32.227,141.113,429.199,762.207
1706146197.321,33.691,18.555,63.965,144.531,911.133
1706146197.325,60.547,2.930,-79.102,-333.008,-530.762
1706146197.326,50.781,11.719,-32.715,-164.551,-1000.000
1706146197.330,17.578,26.855,102.051,329.590,224.609
1706146197.334,8.789,23.438,106.934,290.527,-824.707
1706146197.338,47.852,4.883,-35.645,-228.027,-5.371
1706146197.342,63.477,0.000,-66.895,-308.105,-1000.000
1706146197.346,19.531,15.625,67.871,205.078,-156.738
1706146197.350,-0.977,25.879,132.324,401.855,-784.668
1706146197.353,29.297,14.160,2.441,-104.492,285.645
1706146197.357,42.969,7.812,-89.355,-388.184,-1000.000
1706146197.361,10.254,23.926,34.180,89.844,-462.891
1706146197.365,-11.230,36.133,133.301,441.895,-947.266
1706146197.369,9.277,22.949,30.762,10.742,628.906
1706146197.371,45.898,6.348,-94.238,-376.465,-892.090
1706146197.375,32.227,18.066,0.977,-22.949,-837.891
1706146197.379,15.137,37.109,123.535,412.598,620.605
1706146197.383,30.273,33.691,80.566,185.547,-996.582
1706146197.387,55.664,15.625,-63.477,-311.035,-375.977
1706146197.391,59.082,20.996,-46.387,-214.355,-1000.000
1706146197.395,45.410,38.574,85.449,286.133,84.961
1706146197.398,34.668,46.387,117.188,314.941,-799.316
1706146197.402,58.105,31.250,-15.625,-182.129,78.613
1706146197.406,62.012,18.066,-79.102,-322.266,-1000.000
1706146197.410,25.391,37.109,56.641,182.617,-243.164
1706146197.414,-1.465,43.945,141.113,418.945,-804.199
1706146197.431,31.738,24.902,15.625,-75.195,355.469
1706146197.435,59.570,11.230,-87.402,-391.113,-1000.000
1706146197.439,26.855,26.367,34.668,49.316,-582.520
1706146197.443,13.672,45.898,139.160,432.129,935.059
1706146197.447,30.273,31.738,48.828,63.965,720.703
1706146197.451,54.199,13.672,-91.797,-367.188,-792.480
1706146197.455,36.133,21.973,-10.742,-99.609,-936.523
1706146197.458,9.277,34.668,129.883,366.211,463.867
1706146197.462,19.043,35.156,96.680,217.773,-924.316
1706146197.466,53.223,20.996,-60.059,-269.531,-240.723
1706146197.470,47.852,21.484,-52.734,-221.680,-1000.000
1706146197.474,16.113,41.992,93.750,295.898,-5.859
1706146197.476,6.836,46.387,123.047,375.488,-784.668
1706146197.480,41.992,26.367,-15.625,-162.598,153.320
1706146197.484,59.082,12.207,-76.660,-353.516,-1000.000
1706146197.488,20.996,29.297,62.988,141.113,-318.359
1706146197.492,11.719,43.457,144.043,420.410,-838.379
1706146197.496,51.758,25.391,22.461,-47.363,446.777
1706146197.500,72.754,10.254,-87.891,-394.531,-1000.000
1706146197.503,47.852,21.484,28.320,26.855,-653.320
1706146197.507,29.785,35.156,140.625,437.988,857.910
1706146197.511,34.180,27.832,55.176,104.980,822.754
1706146197.515,56.152,9.766,-68.848,-354.492,-654.297
1706146197.519,44.434,14.648,-12.695,-128.418,-1000.000
1706146197.521,21.484,35.156,104.980,359.375,316.895
1706146197.525,12.695,35.156,102.051,278.320,-857.910
1706146197.529,39.551,16.113,-36.133,-231.934,-90.332
1706146197.533,59.082,18.066,-53.223,-261.719,-1000.000
1706146197.537,30.273,33.203,72.266,242.676,-99.121
1706146197.541,7.812,37.109,125.000,381.836,-779.785
1706146197.545,37.109,26.367,-3.906,-114.746,231.445
1706146197.548,62.500,20.996,-88.867,-359.863,-1000.000
1706146197.552,28.320,35.645,39.062,99.121,-393.555
1706146197.556,2.930,39.062,132.324,426.270,-890.625
1706146197.560,34.180,23.926,35.645,-7.812,554.688
1706146197.564,62.012,11.719,-80.078,-375.000,-968.750
1706146197.581,28.809,28.320,18.555,-2.441,-747.070
1706146197.585,4.395,42.480,134.277,408.203,738.281
1706146197.589,21.484,29.297,74.707,147.461,950.195
1706146197.593,56.152,13.672,-67.383,-343.750,-478.516
1706146197.597,44.922,19.043,-36.133,-193.359,-1000.000
1706146197.601,12.695,34.180,92.773,334.961,202.637
1706146197.605,9.766,34.668,109.375,321.777,-823.730
1706146197.608,38.086,19.531,-23.926,-201.660,6.348
1706146197.612,48.828,16.113,-66.406,-312.988,-1000.000
1706146197.616,29.297,37.109,78.613,214.355,-177.734
1706146197.620,24.902,45.898,143.555,418.945,-787.598
1706146197.624,43.457,24.902,-7.324,-114.258,309.082
1706146197.611,52.246,14.160,-97.168,-394.531,-1000.000
1706146197.615,24.902,32.715,38.574,83.008,-482.910
1706146197.619,6.348,47.363,137.207,435.547,-959.473
1706146197.623,25.391,28.809,40.039,28.809,634.766
1706146197.627,57.617,6.836,-92.285,-394.043,-878.418
1706146197.631,44.922,23.926,-10.254,-53.711,-862.305
1706146197.635,24.902,49.316,117.676,413.574,567.383
1706146197.638,27.344,42.480,90.820,197.754,-969.727
1706146197.642,50.293,20.020,-45.898,-313.477,-336.914
1706146197.646,44.434,20.020,-36.133,-239.258,-1000.000
1706146197.650,15.625,40.527,96.680,286.621,85.938
1706146197.654,15.625,41.504,110.352,332.031,-792.969
1706146197.656,49.316,21.484,-26.855,-183.105,100.098
1706146197.660,59.570,14.648,-62.012,-337.891,-1000.000
1706146197.664,25.391,27.344,72.266,153.809,-255.371
1706146197.668,-9.766,34.668,137.695,396.484,-808.105
1706146197.672,15.625,23.926,6.836,-88.867,382.812
1706146197.676,44.434,8.301,-96.680,-402.832,-1000.000
1706146197.680,17.578,20.020,33.203,47.852,-576.660
1706146197.683,3.418,42.480,125.977,429.199,936.035
1706146197.687,19.043,35.156,43.945,59.570,766.113
1706146197.691,46.387,19.531,-69.336,-378.906,-730.469
1706146197.695,30.762,30.273,-4.883,-113.281,-962.402
1706146197.699,7.324,41.504,116.211,372.070,416.016
1706146197.701,13.672,36.621,109.863,236.816,-887.207
1706146197.705,50.781,24.902,-30.273,-268.555,-169.922
1706146197.709,46.875,18.066,-58.594,-255.371,-1000.000
1706146197.713,13.672,30.762,75.684,251.465,-14.648
1706146197.717,2.930,35.645,133.789,360.352,-776.367
1706146197.721,32.227,14.648,-8.789,-155.273,186.523
1706146197.725,46.875,5.371,-97.168,-354.492,-1000.000
1706146197.728,20.508,22.461,45.410,130.859,-332.031
1706146197.732,-3.418,35.156,150.879,417.480,-844.238
1706146197.736,14.160,22.461,29.297,-34.180,479.980
1706146197.740,51.758,9.277,-89.355,-401.855,-1000.000
1706146197.744,27.344,20.508,27.344,-9.277,-676.758
1706146197.749,7.812,33.203,143.555,405.762,828.125
1706146197.753,22.949,19.531,61.035,103.027,880.371
1706146197.757,49.805,-1.465,-85.938,-355.469,-592.773
1706146197.761,38.574,10.742,-22.949,-158.691,-1000.000
1706146197.765,16.113,32.227,109.863,339.844,318.359
1706146197.769,13.184,29.785,97.168,266.113,-841.309
1706146197.773,47.363,10.254,-44.434,-251.465,-53.223
1706146197.776,61.523,10.254,-58.594,-293.945,-1000.000
1706146197.780,22.461,33.691,81.055,217.773,-108.887
1706146197.784,2.930,37.109,134.277,396.973,-777.832
1706146197.788,36.133,18.066,0.977,-108.398,262.207
1706146197.792,57.129,13.184,-93.262,-373.047,-1000.000
1706146197.807,29.785,29.785,41.504,91.797,-419.434
1706146197.811,4.883,38.086,133.301,414.062,-906.738
1706146197.815,13.672,21.484,20.020,-0.977,580.078
1706146197.819,44.434,3.906,-93.262,-395.996,-938.965
1706146197.823,32.715,19.531,8.301,-48.828,-787.598
1706146197.827,6.836,36.133,118.652,406.250,680.664
1706146197.831,11.230,25.879,67.383,133.789,972.656
1706146197.834,36.621,8.789,-65.430,-372.559,-438.477
1706146197.838,25.391,8.301,-34.180,-218.262,-1000.000
1706146197.842,0.000,24.902,105.957,304.199,171.875
1706146197.846,-4.883,29.297,122.070,286.621,-807.617
1706146197.850,30.273,10.742,-24.414,-226.074,45.410
1706146197.851,53.711,7.812,-69.824,-315.430,-1000.000
1706146197.855,20.020,26.367,71.777,189.453,-200.195
1706146197.859,-5.371,30.762,144.043,399.902,-791.504
1706146197.863,22.949,17.090,17.090,-94.727,335.449
1706146197.867,50.293,10.742,-83.008,-384.277,-1000.000
1706146197.871,22.461,20.508,32.715,61.523,-508.789
1706146197.875,-6.348,33.203,141.113,420.898,-992.188
1706146197.878,10.742,24.414,48.340,30.762,689.453
1706146197.882,46.387,6.348,-83.984,-381.348,-824.219
1706146197.886,33.691,17.578,-7.812,-70.312,-888.672
1706146197.890,5.371,38.574,122.070,378.906,543.457
1706146197.894,8.301,34.180,102.051,207.520,-938.477
1706146197.896,42.480,12.695,-41.992,-288.086,-279.785
1706146197.900,50.781,10.742,-40.527,-234.375,-1000.000
1706146197.904,9.277,28.809,91.309,281.250,52.734
1706146197.908,-11.230,29.785,125.000,349.121,-780.762
1706146197.912,19.531,5.859,-14.160,-169.434,145.020
1706146197.916,33.691,-1.953,-78.613,-342.285,-1000.000
1706146197.920,12.207,15.137,57.617,153.320,-270.508
1706146197.923,-3.418,26.855,146.973,407.227,-810.547
1706146197.927,22.949,19.531,21.973,-83.984,409.180
1706146197.931,50.781,12.207,-92.285,-418.457,-1000.000
1706146197.935,22.949,27.344,36.621,19.043,-599.121
1706146197.939,8.301,41.016,143.066,415.527,907.227
1706146197.941,23.926,33.691,51.758,67.871,806.641
1706146197.945,47.363,19.531,-75.684,-367.676,-683.105
1706146197.949,36.621,28.320,-0.977,-110.352,-968.750
1706146197.953,14.160,42.969,127.930,374.023,411.133
1706146197.957,16.602,39.551,107.910,251.953,-879.395
1706146197.961,44.922,20.996,-39.062,-262.207,-146.484
1706146197.965,43.457,18.555,-49.805,-270.996,-1000.000
1706146197.968,22.949,33.691,85.938,245.605,-41.016
1706146197.972,9.766,36.621,127.441,375.000,-774.902
1706146197.976,23.926,18.555,-0.488,-141.602,210.449
1706146197.980,50.781,12.695,-72.266,-354.004,-1000.000
1706146197.984,24.902,28.809,50.293,126.953,-351.074
1706146197.988,1.465,35.645,140.625,433.594,-858.887
1706146197.992,25.391,25.391,31.738,-18.555,506.836
1706146197.996,60.059,10.254,-87.402,-411.621,-1000.000
1706146198.000,45.410,19.043,22.949,-18.555,-706.543
1706146198.004,19.531,35.156,134.277,410.645,791.992
1706146198.008,30.273,27.344,53.711,118.652,904.297
1706146198.012,53.711,10.254,-78.125,-350.586,-551.758
1706146198.015,37.598,12.207,-21.973,-166.504,-1000.000
1706146198.019,4.883,25.879,113.281,329.590,262.207
1706146198.023,4.883,26.855,125.977,288.086,-832.031
1706146198.027,41.992,5.859,-26.367,-218.750,-23.926
1706146198.031,48.828,-0.488,-68.359,-304.688,-1000.000
1706146198.032,17.090,19.531,72.754,198.242,-140.625
1706146198.036,0.977,27.832,135.742,375.488,-782.227
1706146198.040,29.297,10.254,-4.883,-125.977,271.973
1706146198.044,49.805,1.465,-93.262,-381.836,-1000.000
1706146198.048,24.414,20.996,43.457,86.426,-439.453
1706146198.052,6.836,29.297,139.160,425.781,-924.805
1706146198.056,28.809,14.160,34.180,6.836,601.562
1706146198.059,57.129,3.906,-95.215,-395.508,-923.340
1706146198.063,34.668,19.043,5.859,-55.176,-796.387
1706146198.067,18.555,34.668,128.418,395.508,673.340
1706146198.071,19.043,27.344,70.801,169.922,983.887
1706146198.075,39.551,11.719,-69.336,-314.941,-416.504
1706146198.077,38.086,15.137,-39.062,-202.148,-1000.000
1706146198.081,9.766,27.832,91.309,301.758,123.047
1706146198.085,0.000,28.809,110.840,325.195,-798.828
1706146198.089,33.203,17.090,-21.484,-187.012,81.055
1706146198.093,56.152,14.648,-69.336,-320.312,-1000.000
1706146198.097,26.855,26.367,64.941,176.758,-224.609
1706146198.101,2.930,32.715,130.859,408.203,-797.363
1706146198.104,30.762,19.531,7.812,-86.914,345.215
1706146198.108,58.594,7.812,-72.754,-402.344,-1000.000
1706146198.112,27.832,20.508,40.527,50.293,-538.086
1706146198.116,4.883,40.527,127.441,432.129,979.980
1706146198.120,26.367,29.297,26.367,45.410,706.055
1706146198.122,53.711,7.812,-98.633,-388.672,-807.129
1706146198.126,23.926,18.555,-7.812,-92.285,-904.297
1706146198.130,-2.930,38.086,109.863,371.094,506.348
1706146198.134,16.113,38.574,86.914,204.590,-928.711
1706146198.138,45.898,20.996,-44.922,-291.504,-249.023
1706146198.142,35.156,19.531,-49.805,-243.652,-1000.000
1706146198.146,5.859,38.086,78.613,256.348,3.906
1706146198.149,-4.883,44.922,127.930,333.496,-785.156
1706146198.153,18.555,21.484,-3.906,-181.641,153.809
1706146198.157,35.645,3.418,-80.078,-365.723,-1000.000
1706146198.161,5.859,22.949,48.828,139.648,-306.641
1706146198.165,-17.090,34.180,138.184,410.645,-827.637
1706146198.181,14.648,14.160,21.484,-55.176,425.781
1706146198.185,43.457,3.906,-98.633,-389.648,-1000.000
1706146198.189,16.113,20.020,9.766,18.555,-645.508
1706146198.193,-7.812,35.645,133.301,422.363,864.258
1706146198.197,20.020,29.297,62.012,83.008,806.152
1706146198.201,77.148,10.742,-79.102,-364.258,-680.664
1706146198.205,42.480,12.695,-11.230,-132.812,-1000.000
1706146198.208,-19.531,32.227,125.977,337.891,342.773
1706146198.212,-12.695,32.227,112.305,251.953,-869.629
1706146198.216,23.438,11.719,-28.320,-258.301,-114.746
1706146198.220,25.879,8.301,-48.828,-290.039,-1000.000
1706146198.224,-7.324,31.738,76.660,213.379,-91.309
1706146198.242,-26.855,41.504,131.836,348.145,-781.738
1706146198.246,9.766,19.043,3.418,-165.039,220.703
1706146198.250,28.809,7.324,-81.055,-394.043,-1000.000
1706146198.254,0.000,27.832,50.781,96.680,-385.742
1706146198.258,-11.230,33.691,141.113,413.574,-878.906
1706146198.262,9.766,15.137,33.203,-23.926,504.883
1706146198.266,36.133,2.441,-80.078,-389.648,-1000.000
1706146198.269,16.113,14.648,27.832,-23.438,-735.352
1706146198.273,0.000,31.250,138.672,395.020,744.629
1706146198.277,19.043,27.832,67.383,123.535,923.828
1706146198.281,43.457,9.766,-61.035,-353.516,-514.648
1706146198.285,32.715,9.277,-19.531,-187.988,-1000.000
1706146198.272,7.324,26.367,107.422,309.570,216.797
1706146198.276,1.953,21.973,115.234,279.785,-827.637
1706146198.280,36.621,8.789,-28.320,-216.797,-17.090
1706146198.284,45.898,14.160,-65.918,-301.758,-1000.000
1706146198.288,17.578,33.203,66.406,195.801,-151.367
1706146198.292,-0.488,40.527,131.348,394.531,-785.156
1706146198.296,28.809,23.438,15.625,-101.562,295.410
1706146198.299,57.617,13.184,-73.730,-374.512,-1000.000
1706146198.303,25.879,29.297,44.922,83.496,-473.145
1706146198.307,1.465,39.062,140.625,428.711,-949.219
1706146198.311,23.438,21.973,43.457,20.020,616.211
1706146198.315,50.293,4.395,-76.660,-381.836,-902.344
1706146198.316,27.832,17.578,4.395,-42.480,-848.145
1706146198.320,2.441,31.738,126.953,408.691,594.238
1706146198.324,11.230,21.973,90.820,192.871,-982.910
1706146198.328,45.410,5.859,-54.199,-294.434,-367.676
1706146198.332,36.621,8.301,-37.598,-207.520,-1000.000
1706146198.336,11.230,28.320,94.238,297.852,104.004
1706146198.340,2.441,33.203,121.094,331.055,-795.410
1706146198.343,33.203,7.324,-18.066,-196.777,92.285
1706146198.347,54.688,-0.977,-79.102,-346.191,-1000.000
1706146198.351,18.555,26.367,58.105,162.598,-240.723
1706146198.355,-0.488,36.133,133.301,413.574,-802.246
1706146198.359,31.250,17.090,12.207,-68.848,374.023
1706146198.361,51.758,6.348,-82.031,-383.789,-1000.000
1706146198.365,21.973,21.973,36.621,54.688,-569.336
1706146198.369,-1.465,34.180,137.695,440.918,947.266
1706146198.373,20.020,22.461,46.387,66.895,733.398
1706146198.377,56.152,4.883,-85.938,-387.207,-765.137
1706146198.381,39.551,14.648,-18.555,-106.934,-947.754
1706146198.385,4.395,31.738,107.910,367.676,448.730
1706146198.388,-0.977,28.320,80.078,210.938,-918.457
1706146198.392,42.969,15.137,-57.617,-283.203,-230.957
1706146198.396,46.387,16.113,-38.574,-262.207,-1000.000
1706146198.400,14.648,32.227,93.262,252.441,-23.438
1706146198.404,5.859,36.621,131.348,356.934,-779.297
1706146198.406,25.391,15.137,0.488,-173.828,184.082
1706146198.410,37.109,5.371,-70.312,-371.582,-1000.000
1706146198.414,8.789,17.090,51.758,126.465,-330.566
1706146198.418,-12.695,27.344,136.719,410.156,-840.332
1706146198.422,13.184,18.066,26.367,-45.410,455.566
1706146198.426,50.293,2.441,-92.285,-386.230,-1000.000
1706146198.430,24.902,13.184,16.113,8.789,-660.645
1706146198.433,-0.977,22.461,124.512,410.156,839.844
1706146198.437,10.254,12.207,51.758,98.145,850.586
1706146198.441,45.898,-1.465,-78.613,-356.445,-625.977
1706146198.445,27.832,6.836,-23.438,-146.973,-1000.000
1706146198.449,-4.883,23.438,109.863,347.656,319.824
1706146198.467,-4.883,23.438,111.328,274.902,-854.492
1706146198.471,30.762,11.230,-24.902,-239.258,-83.984
1706146198.475,47.852,10.742,-51.270,-285.645,-1000.000
1706146198.479,14.648,22.949,79.102,220.215,-98.145
1706146198.483,0.977,28.320,134.766,381.348,-779.297
1706146198.487,34.668,14.160,5.371,-125.977,243.652
1706146198.491,52.734,-6.348,-82.520,-364.746,-1000.000
1706146198.494,26.367,4.883,42.480,110.352,-416.016
1706146198.498,-4.883,24.414,148.438,423.340,-899.414
1706146198.502,4.883,10.742,33.691,-9.277,544.434
1706146198.506,33.691,-4.395,-88.867,-391.602,-977.539
1706146198.510,13.672,8.789,19.531,-31.250,-770.996
1706146198.498,-11.230,26.367,136.230,408.691,700.195
1706146198.502,4.883,20.996,69.824,165.039,953.613
1706146198.506,36.621,6.836,-72.754,-324.219,-472.168
1706146198.510,29.785,15.625,-29.297,-194.336,-1000.000
1706146198.514,7.812,30.273,102.051,321.289,176.758
1706146198.518,5.371,26.367,100.098,295.898,-818.848
1706146198.522,42.480,9.277,-34.180,-232.422,13.184
1706146198.525,47.852,6.348,-62.988,-323.730,-1000.000
1706146198.529,8.301,21.484,70.801,187.500,-186.035
1706146198.533,-4.883,23.926,135.742,403.809,-790.039
1706146198.537,28.320,7.324,4.883,-94.727,297.852
1706146198.541,50.293,1.465,-77.148,-390.625,-1000.000
1706146198.542,11.719,17.090,49.316,64.941,-491.699
1706146198.546,-9.277,32.715,142.090,426.758,-977.539
1706146198.550,20.020,26.855,48.828,29.785,658.691
1706146198.554,47.852,7.324,-75.684,-393.555,-855.957
1706146198.558,29.785,14.160,7.324,-69.336,-875.000
1706146198.562,9.277,32.715,121.582,399.902,560.547
1706146198.566,8.789,26.855,81.543,186.035,-970.215
1706146198.569,34.668,9.766,-39.551,-314.453,-332.031
1706146198.573,38.574,12.207,-25.391,-228.027,-1000.000
1706146198.577,3.418,24.902,97.168,286.133,61.523
1706146198.581,-7.324,27.832,131.348,337.402,-787.109
1706146198.585,26.367,11.719,-4.395,-181.641,125.488
1706146198.601,37.109,-0.977,-67.871,-338.867,-1000.000
1706146198.605,9.766,14.648,62.012,164.551,-271.484
1706146198.609,-8.789,32.715,141.113,422.852,-814.453
1706146198.613,21.973,18.066,26.367,-55.664,400.391
1706146198.617,47.363,0.000,-80.078,-388.184,-1000.000
1706146198.621,20.020,18.066,34.180,43.945,-591.797
1706146198.625,-2.441,32.715,141.602,427.734,926.270
1706146198.628,14.160,20.508,60.059,64.453,762.207
1706146198.632,51.270,4.883,-68.359,-360.840,-737.305
1706146198.636,32.227,10.254,-7.812,-108.398,-971.191
1706146198.640,-4.883,21.484,118.164,354.492,409.180
1706146198.644,7.324,17.090,104.492,229.004,-886.719
1706146198.647,35.156,0.488,-39.062,-281.738,-167.480
1706146198.651,37.109,-3.418,-44.434,-282.715,-1000.000
1706146198.655,16.113,15.137,84.473,233.887,-45.898
1706146198.659,5.859,26.855,129.395,358.398,-777.344
1706146198.663,40.527,12.695,2.930,-148.926,198.730
1706146198.667,57.129,1.465,-79.102,-357.910,-1000.000
1706146198.671,21.973,21.973,51.758,127.441,-335.449
1706146198.674,-0.488,36.621,140.625,419.922,-845.703
1706146198.678,23.926,15.137,22.461,-37.109,478.516
1706146198.682,46.875,-1.465,-89.844,-406.738,-1000.000
1706146198.686,28.320,14.160,22.461,-10.254,-687.500
1706146198.690,6.348,27.344,134.766,407.715,814.453
1706146198.691,12.207,18.555,61.035,96.191,871.094
1706146198.695,38.086,0.488,-69.336,-371.094,-593.750
1706146198.699,23.926,6.348,-20.020,-178.711,-1000.000
1706146198.703,1.953,23.926,100.098,318.359,279.785
1706146198.707,2.441,23.926,99.121,270.996,-842.773
1706146198.711,27.832,4.395,-41.992,-233.887,-54.688
1706146198.715,26.855,-1.953,-64.941,-295.898,-1000.000
1706146198.718,6.348,14.160,71.289,219.238,-124.512
1706146198.722,-1.465,20.508,127.441,389.648,-780.762
1706146198.726,22.949,7.324,11.230,-131.836,264.648
1706146198.730,48.828,-7.812,-71.777,-377.441,-1000.000
1706146198.734,21.484,3.418,47.852,90.332,-438.477
1706146198.737,2.441,24.414,142.578,419.434,-922.852
1706146198.741,33.203,14.648,43.457,4.883,577.637
1706146198.745,62.988,-3.418,-80.078,-390.137,-936.523
1706146198.749,40.039,6.348,4.883,-39.551,-820.801
1706146198.753,10.742,22.949,122.559,406.250,635.254
1706146198.757,13.672,17.578,77.148,167.969,975.586
1706146198.761,48.828,-0.488,-62.012,-317.871,-434.570
1706146198.764,45.410,0.488,-45.898,-193.359,-1000.000
1706146198.768,17.090,20.020,81.543,303.711,125.977
1706146198.772,7.812,29.785,114.746,316.406,-807.617
1706146198.776,36.621,10.254,-19.043,-178.223,51.758
1706146198.780,48.828,7.324,-64.941,-308.594,-1000.000
1706146198.781,22.461,28.809,70.312,181.152,-216.309
1706146198.785,5.371,36.621,141.602,403.809,-798.340
1706146198.789,36.133,19.043,17.090,-83.008,337.402
1706146198.793,65.430,-2.441,-85.449,-376.465,-1000.000
1706146198.797,26.855,9.277,34.180,78.125,-520.996
1706146198.801,-4.883,32.227,133.301,434.570,998.047
1706146198.805,17.578,25.879,39.551,36.621,695.312
1706146198.808,47.363,6.348,-91.309,-390.625,-817.383
1706146198.812,20.020,16.113,-3.418,-92.285,-899.414
1706146198.816,-7.324,31.738,127.930,373.535,523.438
1706146198.820,14.160,28.320,86.426,198.242,-948.730
1706146198.824,51.270,12.207,-53.223,-292.480,-293.945
1706146198.826,39.551,11.719,-40.527,-232.910,-1000.000
1706146198.830,10.742,26.367,88.379,274.414,34.180
1706146198.834,7.324,26.367,115.723,341.797,-784.668
1706146198.838,22.949,7.324,-17.578,-165.527,139.648
1706146198.842,41.504,-1.465,-77.637,-336.914,-1000.000
1706146198.846,24.414,12.207,51.270,151.367,-277.344
1706146198.850,0.000,22.949,127.441,405.762,-815.430
1706146198.853,20.996,13.672,8.301,-72.754,409.668
1706146198.857,39.551,2.441,-84.961,-405.762,-1000.000
1706146198.861,14.648,11.719,25.879,14.160,-620.117
1706146198.865,-10.254,23.926,127.441,412.109,885.254
1706146198.869,-2.441,14.648,51.270,69.824,809.082
1706146198.871,35.645,-1.953,-83.008,-375.488,-678.711
1706146198.875,26.855,6.348,-21.973,-128.418,-991.699
1706146198.879,-6.836,19.043,100.586,343.750,375.000
1706146198.883,-1.465,15.625,88.379,220.703,-877.441
1706146198.887,37.598,4.395,-45.410,-273.926,-144.531
1706146198.891,35.645,7.324,-63.965,-275.879,-1000.000
1706146198.895,2.930,26.855,64.453,225.098,-52.246
1706146198.898,-8.789,40.527,126.465,360.352,-776.855
1706146198.902,22.461,28.320,0.977,-149.414,213.379
1706146198.906,41.992,14.648,-87.891,-377.441,-1000.000
1706146198.910,14.160,34.668,44.434,110.840,-364.746
1706146198.914,-6.348,47.852,145.508,415.527,-864.746
1706146198.916,14.648,29.297,38.086,-23.438,505.859
1706146198.920,45.410,12.695,-87.891,-386.230,-1000.000
1706146198.924,20.996,20.996,10.254,-1.953,-721.680
1706146198.928,-2.441,30.273,127.930,411.621,765.625
1706146198.932,14.648,20.020,67.871,114.258,904.785
1706146198.936,46.387,3.906,-78.613,-340.820,-546.875
1706146198.940,32.227,16.113,-35.156,-165.039,-1000.000
1706146198.943,3.418,40.039,104.492,312.500,237.305
1706146198.947,0.000,41.016,106.934,278.809,-827.148
1706146198.951,33.691,25.391,-29.785,-231.934,-8.301
1706146198.955,45.898,23.438,-60.059,-311.523,-1000.000
1706146198.959,12.207,35.645,67.871,195.801,-158.203
1706146198.976,-1.953,38.574,118.164,370.117,-785.156
1706146198.980,24.902,24.414,-0.977,-129.883,284.180
1706146198.984,42.480,16.113,-84.473,-397.461,-1000.000
1706146198.988,21.973,36.133,33.203,75.684,-468.262
1706146198.992,8.301,45.898,134.277,425.293,-948.242
1706146198.996,22.461,29.785,34.668,9.277,604.980
1706146199.000,43.945,15.625,-85.938,-399.414,-917.969
1706146199.003,24.414,28.320,8.789,-64.453,-818.848
1706146199.007,0.000,42.480,112.793,387.207,632.812
1706146199.011,5.859,38.574,64.453,159.180,998.047
1706146199.015,41.016,20.020,-60.059,-327.148,-389.648
1706146199.019,34.668,19.043,-36.133,-224.121,-1000.000
1706146199.021,1.953,35.645,88.867,282.227,112.305
1706146199.025,-4.883,35.645,110.840,315.430,-798.340
1706146199.029,27.832,16.113,-20.508,-199.707,79.590
1706146199.033,43.945,2.930,-78.613,-329.102,-1000.000
1706146199.037,13.184,19.043,47.852,182.129,-234.863
1706146199.041,-3.418,33.691,131.836,412.598,-801.758
1706146199.045,28.809,14.160,14.160,-85.449,353.027
1706146199.048,56.641,3.418,-83.496,-396.484,-1000.000
1706146199.052,31.738,22.949,30.762,49.316,-568.848
1706146199.056,8.789,32.715,137.207,426.758,948.242
1706146199.060,24.414,21.484,55.176,54.199,716.797
1706146199.064,57.617,5.859,-77.637,-374.512,-796.387
1706146199.066,32.715,12.695,-2.441,-91.797,-925.781
1706146199.070,13.672,27.832,114.746,374.512,473.633
1706146199.074,24.414,29.785,93.750,219.238,-930.664
1706146199.078,43.457,17.578,-46.387,-279.785,-249.023
1706146199.082,39.062,17.090,-49.805,-244.141,-1000.000
1706146199.086,8.301,29.297,83.984,259.766,2.441
1706146199.090,-10.742,27.344,123.535,349.609,-784.180
1706146199.093,21.973,11.230,-9.277,-158.691,152.832
1706146199.097,47.852,8.789,-82.031,-345.215,-1000.000
1706146199.101,12.695,23.926,59.082,138.672,-314.453
1706146199.105,-13.672,35.645,145.020,409.180,-833.008
1706146199.109,19.531,24.414,13.672,-54.688,435.059
1706146199.112,44.922,7.812,-91.797,-409.668,-1000.000
1706146199.116,12.695,22.461,32.715,2.441,-637.207
1706146199.120,-13.672,41.504,142.578,408.203,859.375
1706146199.124,4.395,32.227,61.035,77.637,840.820
1706146199.128,42.480,10.254,-69.824,-363.770,-630.859
1706146199.132,28.320,14.648,-15.625,-137.207,-1000.000
1706146199.136,2.930,38.574,112.305,341.797,340.820
1706146199.139,3.906,37.598,97.168,251.465,-871.094
1706146199.143,38.086,21.973,-38.574,-258.789,-123.047
1706146199.147,39.062,17.090,-50.781,-291.992,-1000.000
1706146199.151,8.301,27.832,68.359,218.750,-94.238
1706146199.155,7.324,39.062,122.070,371.094,-780.762
1706146199.156,23.438,23.438,0.977,-137.695,229.004
1706146199.160,33.691,12.207,-76.660,-373.047,-1000.000
1706146199.164,9.277,23.926,46.875,104.980,-388.184
1706146199.168,-20.996,33.691,136.230,419.434,-883.789
1706146199.172,9.766,23.438,35.156,-9.277,537.598
1706146199.176,47.363,8.301,-86.426,-386.230,-979.004
1706146199.180,20.020,17.090,8.789,-20.996,-757.324
1706146199.183,-1.465,31.738,120.117,408.691,721.680
1706146199.187,8.301,22.949,66.406,132.324,937.012
1706146199.191,38.574,4.395,-62.988,-349.609,-498.047
1706146199.195,24.902,10.254,-36.133,-198.242,-1000.000
1706146199.199,0.488,29.785,88.867,296.875,203.613
1706146199.202,-1.953,31.250,104.980,282.715,-816.895
1706146199.206,24.414,13.672,-26.367,-223.145,20.020
1706146199.210,42.969,6.836,-72.266,-315.430,-1000.000
1706146199.214,14.160,21.484,57.129,194.336,-180.176
1706146199.218,-0.488,34.180,129.883,390.137,-787.598
1706146199.222,31.250,20.020,3.418,-112.793,305.664
1706146199.226,50.781,9.766,-94.238,-388.184,-1000.000
1706146199.229,20.020,28.320,34.180,69.824,-468.262
1706146199.233,-6.348,41.016,142.090,423.340,-948.730
1706146199.237,13.672,21.484,45.898,20.996,634.277
1706146199.241,41.504,1.953,-77.637,-388.672,-883.301
1706146199.245,26.855,20.996,7.324,-61.035,-840.332
1706146199.246,6.836,41.016,120.605,387.207,605.469
1706146199.250,10.742,35.645,78.613,183.594,-968.750
1706146199.254,41.016,16.113,-51.270,-308.105,-337.891
1706146199.258,42.969,18.066,-30.762,-214.844,-1000.000
1706146199.262,9.766,29.785,91.797,294.922,87.402
1706146199.266,3.418,30.273,113.281,332.031,-790.039
1706146199.270,40.039,19.043,-24.902,-176.270,103.516
1706146199.273,46.875,12.207,-74.707,-334.961,-1000.000
1706146199.277,10.254,29.297,71.289,157.715,-236.328
1706146199.281,-4.395,38.574,145.508,404.297,-801.270
1706146199.285,18.555,17.090,25.391,-83.984,392.578
1706146199.289,42.969,1.465,-71.777,-394.531,-1000.000
1706146199.307,9.277,13.184,35.156,38.086,-563.477
1706146199.311,-16.602,26.367,128.418,419.922,957.031
1706146199.315,14.160,17.578,45.410,66.406,759.277
1706146199.319,38.574,-2.441,-76.172,-376.465,-741.699
1706146199.323,16.602,9.277,-5.371,-108.887,-935.547
1706146199.327,4.395,30.762,105.957,370.117,458.984
1706146199.331,13.184,25.391,88.379,222.168,-902.832
1706146199.334,40.039,4.883,-31.738,-276.855,-192.383
1706146199.338,39.062,4.395,-33.691,-257.812,-1000.000
1706146199.342,13.184,20.996,84.473,244.629,-18.066
1706146199.346,3.418,27.832,126.465,353.516,-775.391
1706146199.350,28.809,13.184,8.789,-144.531,193.359
1706146199.351,47.363,0.000,-65.918,-345.703,-1000.000
1706146199.355,14.160,13.672,55.664,128.418,-324.219
1706146199.359,-8.789,24.902,138.672,413.086,-835.938
1706146199.363,31.738,13.672,26.367,-47.852,466.309
1706146199.367,57.129,3.418,-82.031,-401.367,-1000.000
1706146199.371,16.113,12.695,17.090,1.465,-676.270
1706146199.375,-8.301,25.391,122.070,414.062,823.242
1706146199.378,4.395,15.137,61.035,103.027,859.375
1706146199.382,36.621,-4.395,-71.289,-360.352,-612.793
1706146199.386,32.227,1.465,-33.691,-150.879,-1000.000
1706146199.390,1.465,22.949,97.168,333.008,302.734
1706146199.394,-3.418,22.949,104.492,260.742,-845.703
1706146199.396,40.527,7.812,-32.715,-232.422,-64.453
1706146199.400,43.945,8.789,-56.641,-274.902,-1000.000
1706146199.404,-0.977,19.043,78.125,229.004,-107.422
1706146199.408,-11.230,24.414,134.766,384.766,-777.832
1706146199.412,28.809,9.277,0.977,-132.812,252.930
1706146199.416,48.340,2.930,-77.148,-382.324,-1000.000
1706146199.420,17.090,24.902,49.316,88.379,-404.297
1706146199.423,-0.488,34.180,133.301,404.297,-892.578
1706146199.427,27.344,13.672,26.855,-8.789,558.594
1706146199.431,47.363,-0.488,-80.078,-389.160,-963.867
1706146199.435,19.043,10.254,28.320,-41.992,-765.137
1706146199.439,-1.953,21.973,134.766,385.254,708.008
1706146199.441,5.371,23.926,78.125,128.906,971.680
1706146199.445,33.203,12.207,-54.199,-342.773,-439.941
1706146199.449,25.879,12.695,-22.461,-195.801,-1000.000
1706146199.453,8.301,33.203,95.215,313.965,182.617
1706146199.457,11.719,36.621,96.191,304.688,-806.641
1706146199.461,45.410,15.137,-33.691,-209.473,41.992
1706146199.465,56.641,8.789,-65.918,-312.012,-1000.000
1706146199.468,21.484,28.809,70.801,195.312,-193.359
1706146199.472,10.742,35.645,128.418,406.250,-790.039
1706146199.476,43.945,23.438,11.719,-88.379,334.473
1706146199.480,62.500,10.254,-74.219,-375.000,-1000.000
1706146199.484,26.367,23.926,40.527,82.031,-484.375
1706146199.487,2.441,41.016,139.648,446.777,-963.379
1706146199.491,25.391,24.902,44.922,44.434,676.270
1706146199.495,46.875,1.953,-80.078,-392.090,-832.520
1706146199.499,24.902,11.719,-5.371,-81.055,-880.859
1706146199.503,7.812,33.691,119.629,392.090,546.875
1706146199.507,6.348,27.344,90.332,198.242,-947.266
1706146199.511,31.250,9.277,-44.434,-293.457,-291.504
1706146199.514,33.691,9.277,-40.527,-215.820,-1000.000
1706146199.518,7.812,33.203,83.496,279.785,44.434
1706146199.522,-3.906,45.410,129.883,325.684,-784.180
1706146199.526,30.273,19.531,-3.906,-178.223,135.742
1706146199.530,42.480,5.371,-70.312,-340.820,-1000.000
1706146199.531,4.883,25.391,64.941,143.066,-263.672
1706146199.535,-17.090,34.180,142.578,399.414,-810.547
1706146199.539,12.207,16.113,11.719,-66.406,413.574
1706146199.543,48.340,3.906,-95.215,-392.090,-1000.000
1706146199.547,23.926,21.484,24.902,31.250,-594.238
1706146199.551,1.953,35.645,124.023,421.387,919.922
1706146199.555,20.996,25.391,44.922,62.012,783.691
1706146199.558,60.059,9.766,-79.590,-382.812,-707.520
1706146199.562,42.969,15.625,-9.766,-147.461,-977.051
1706146199.566,20.996,33.691,117.188,335.449,401.855
1706146199.570,23.926,33.203,88.867,233.398,-882.324
1706146199.574,32.715,16.602,-45.410,-275.879,-154.785
1706146199.577,28.320,15.137,-43.945,-277.344,-1000.000
1706146199.581,3.906,30.762,90.332,230.957,-53.223
1706146199.585,-5.859,31.250,129.395,344.238,-776.855
1706146199.589,22.461,9.766,-5.859,-158.691,213.867
1706146199.593,43.457,-1.465,-75.195,-364.258,-1000.000
1706146199.597,19.531,16.113,54.199,118.164,-357.910
1706146199.601,1.465,31.250,132.324,415.039,-859.375
1706146199.604,18.555,14.648,22.949,-37.109,499.512
1706146199.608,40.527,-4.395,-77.637,-394.043,-1000.000
1706146199.612,13.672,11.719,24.902,-3.418,-684.082
1706146199.616,-4.883,32.227,128.906,407.227,812.012
1706146199.620,15.625,24.414,63.477,114.258,894.043
1706146199.621,49.805,8.301,-64.941,-340.332,-554.688
1706146199.625,39.551,16.113,-25.879,-156.738,-1000.000
1706146199.629,14.648,38.086,98.633,322.754,257.324
1706146199.633,5.859,39.551,110.840,271.484,-835.449
1706146199.637,38.574,12.695,-24.414,-235.352,-34.668
1706146199.641,51.270,2.930,-58.105,-305.664,-1000.000
1706146199.645,19.043,23.438,63.477,193.359,-142.090
1706146199.648,1.465,30.273,128.906,372.559,-784.180
1706146199.652,31.250,15.625,19.043,-109.375,285.156
1706146199.656,60.059,10.254,-76.660,-362.305,-1000.000
1706146199.660,28.320,24.902,43.945,96.191,-435.059
1706146199.664,0.488,33.203,134.766,432.129,-917.969
1706146199.667,18.066,18.066,38.086,16.602,599.609
1706146199.671,56.152,2.930,-70.312,-381.836,-916.504
1706146199.675,36.133,15.137,19.043,-35.156,-824.219
1706146199.679,0.000,27.344,132.812,394.531,635.742
1706146199.683,15.137,23.438,86.914,159.668,996.094
1706146199.687,44.922,6.836,-62.988,-314.453,-405.273
1706146199.691,30.762,7.812,-44.434,-202.148,-1000.000
1706146199.694,-1.465,26.855,99.609,282.715,141.113
1706146199.698,-7.324,24.902,120.605,307.617,-800.293
1706146199.702,25.391,7.812,-10.254,-179.688,68.359
1706146199.706,35.156,7.324,-60.547,-316.406,-1000.000
1706146199.710,5.371,25.879,61.523,165.527,-223.633
1706146199.726,-11.719,29.297,133.301,391.602,-797.852
1706146199.730,17.578,14.160,17.090,-91.309,345.215
1706146199.734,48.340,8.301,-85.938,-391.113,-1000.000
1706146199.738,19.531,23.926,29.297,45.410,-532.715
1706146199.742,-4.883,36.133,138.184,425.293,990.234
1706146199.746,20.508,19.043,40.039,53.223,688.477
1706146199.750,51.270,4.883,-76.660,-393.066,-821.777
1706146199.753,19.043,14.648,11.719,-108.398,-911.133
1706146199.757,-14.160,21.973,118.164,366.211,495.605
1706146199.761,-0.488,20.508,91.797,204.590,-929.199
1706146199.765,38.086,7.812,-34.668,-291.504,-258.301
1706146199.769,42.480,9.277,-36.133,-241.699,-1000.000
1706146199.772,13.672,26.855,82.031,267.578,26.855
1706146199.776,0.488,31.738,114.258,351.562,-782.715
1706146199.780,31.250,15.137,-3.906,-155.273,149.902
1706146199.784,55.176,3.418,-61.523,-339.844,-1000.000
1706146199.788,19.043,16.113,63.965,151.367,-312.012
1706146199.792,-3.906,30.273,145.508,412.598,-832.031
1706146199.796,22.461,15.625,27.832,-57.617,434.082
1706146199.799,41.504,1.953,-83.008,-387.207,-1000.000
1706146199.803,18.555,14.160,24.902,18.066,-654.785
1706146199.807,1.953,24.902,132.812,401.855,851.562
1706146199.811,8.789,19.043,60.059,79.102,820.312
1706146199.815,43.945,3.418,-77.637,-352.051,-669.434
1706146199.816,30.762,13.672,-16.602,-130.371,-996.582
1706146199.820,1.465,32.715,116.211,348.633,366.699
1706146199.824,0.977,27.344,108.887,253.418,-869.629
1706146199.828,34.668,11.230,-31.250,-248.047,-120.117
1706146199.832,51.758,13.184,-51.270,-270.508,-1000.000
1706146199.836,19.043,34.668,81.055,233.887,-82.520
1706146199.840,1.465,41.016,126.953,366.699,-778.809
1706146199.843,32.715,22.949,0.000,-136.230,229.492
1706146199.847,52.734,8.789,-82.520,-363.770,-1000.000
1706146199.851,28.809,29.297,49.805,112.305,-395.508
1706146199.855,2.930,40.527,153.809,427.734,-881.348
1706146199.859,23.926,17.090,33.691,-18.066,500.977
1706146199.861,56.641,2.930,-79.102,-386.719,-1000.000
1706146199.865,33.691,20.996,30.762,-12.695,-747.559
1706146199.869,6.836,34.180,134.766,404.785,732.422
1706146199.873,14.648,26.367,75.684,141.602,913.086
1706146199.877,48.828,13.672,-57.129,-323.730,-537.109
1706146199.881,39.062,20.508,-20.996,-171.875,-1000.000
1706146199.885,6.348,35.156,104.492,309.570,215.820
1706146199.888,9.277,30.273,103.027,271.973,-832.031
1706146199.892,42.969,13.672,-35.156,-238.281,-18.066
1706146199.896,40.527,15.137,-55.664,-317.871,-1000.000
1706146199.900,9.766,35.645,74.707,187.988,-171.387
1706146199.904,-6.348,41.016,132.324,383.301,-788.574
1706146199.906,20.996,22.461,16.113,-106.445,294.922
1706146199.910,46.387,12.695,-72.266,-380.859,-1000.000
1706146199.914,19.043,27.344,46.875,72.754,-464.844
1706146199.918,0.977,39.062,139.648,413.574,-944.336
1706146199.922,25.879,29.297,39.551,11.719,614.746
1706146199.926,57.617,11.230,-84.473,-382.324,-896.973
1706146199.930,27.832,21.484,-2.930,-59.082,-851.074
1706146199.933,-1.465,38.574,102.051,387.207,585.449
1706146199.937,17.090,38.574,72.754,177.734,-982.422
1706146199.941,50.781,20.020,-52.246,-314.941,-356.934
1706146199.945,41.992,16.602,-39.062,-221.191,-1000.000
1706146199.949,9.766,31.738,87.402,275.879,75.684
1706146199.951,-1.465,32.227,110.840,314.941,-794.922
1706146199.955,29.785,20.996,-10.254,-185.059,95.215
1706146199.959,42.480,13.672,-67.871,-335.938,-1000.000
1706146199.963,17.578,30.273,56.152,155.273,-254.883
1706146199.967,-1.953,43.457,136.230,395.996,-808.105
1706146199.971,19.531,25.391,15.137,-82.520,371.094
1706146199.975,49.316,17.090,-86.914,-399.414,-1000.000
1706146199.978,22.461,33.691,27.832,31.250,-569.824
1706146199.982,-3.418,44.922,130.371,418.945,948.242
1706146199.986,16.113,33.691,45.410,54.688,738.770
1706146199.990,46.387,16.113,-75.684,-382.324,-766.113
1706146199.994,35.156,26.855,-5.371,-116.211,-944.824
1706146199.996,12.695,48.340,115.723,353.027,451.172
1706146200.000,6.348,40.527,86.426,219.727,-912.598
1706146200.004,39.551,11.719,-51.758,-277.344,-216.309
1706146200.008,41.992,7.812,-43.945,-241.211,-1000.000
1706146200.012,4.395,27.832,85.449,255.859,-14.160
1706146200.016,0.488,33.203,125.977,347.656,-776.855
1706146200.020,39.062,17.090,-8.301,-145.508,175.781
1706146200.023,51.270,8.789,-75.195,-350.098,-1000.000
1706146200.027,13.672,21.484,62.500,126.465,-315.918
1706146200.031,-2.930,31.250,137.207,409.668,-834.961
1706146200.035,27.344,15.137,20.020,-40.527,458.984
1706146200.039,58.594,0.977,-87.891,-391.602,-1000.000
1706146200.056,33.203,18.066,21.973,0.977,-663.574
1706146200.060,7.324,34.180,130.371,398.438,838.867
1706146200.064,19.043,23.438,57.617,83.984,860.352
1706146200.068,44.922,5.371,-68.359,-365.234,-610.840
1706146200.072,33.203,17.578,-11.719,-144.531,-1000.000
1706146200.076,12.207,30.762,102.051,348.633,309.082
1706146200.080,10.742,27.832,103.516,264.160,-847.168
1706146200.083,41.016,20.508,-17.578,-239.746,-60.547
1706146200.087,41.504,14.648,-47.852,-276.367,-1000.000
1706146200.091,8.789,28.320,75.684,224.609,-116.699
1706146200.095,5.371,39.062,132.812,379.395,-779.297
1706146200.099,39.062,21.484,10.254,-115.234,250.977
1706146200.101,44.922,10.254,-73.242,-377.441,-1000.000
1706146200.105,7.812,23.438,51.758,86.914,-406.250
1706146200.109,-12.207,31.250,145.020,407.227,-895.508
1706146200.113,9.277,20.020,40.527,-18.555,561.035
1706146200.117,43.945,6.836,-82.520,-387.207,-959.961
1706146200.121,18.066,18.555,5.859,-38.086,-765.625
1706146200.125,-7.812,36.133,119.141,384.277,709.473
1706146200.128,11.719,31.250,70.312,140.625,958.984
1706146200.132,46.387,14.648,-64.453,-326.660,-460.449
1706146200.136,40.527,12.207,-39.062,-197.266,-1000.000
1706146200.140,11.719,30.273,92.285,287.109,174.805
1706146200.144,3.906,37.598,117.188,295.410,-808.105
1706146200.146,28.809,14.160,-19.531,-202.637,41.504
1706146200.150,40.527,5.859,-65.918,-308.105,-1000.000
1706146200.154,14.160,27.344,70.312,201.172,-185.547
1706146200.158,2.441,41.016,127.441,395.020,-788.086
1706146200.162,34.180,24.414,-3.906,-106.445,322.754
1706146200.166,54.688,9.766,-88.867,-387.695,-1000.000
1706146200.170,22.949,22.949,40.039,67.383,-506.348
1706146200.173,1.953,36.621,145.508,423.828,-983.398
1706146200.177,26.367,28.320,43.945,33.203,662.598
1706146200.181,54.688,12.207,-86.426,-379.883,-854.980
1706146200.185,25.879,17.090,7.324,-75.195,-881.348
1706146200.189,0.488,26.367,123.047,374.512,554.688
1706146200.191,8.301,25.391,87.402,183.105,-961.914
1706146200.195,43.457,7.324,-45.410,-295.410,-319.336
1706146200.199,42.969,7.324,-38.086,-224.121,-1000.000
1706146200.203,13.672,30.273,92.285,268.066,58.594
1706146200.207,10.254,36.621,121.094,327.637,-789.551
1706146200.211,41.016,18.555,-9.277,-172.363,115.723
1706146200.215,48.340,10.254,-61.523,-336.426,-1000.000
1706146200.218,19.531,29.297,61.035,149.414,-265.625
1706146200.222,4.883,34.668,125.000,402.832,-812.012
1706146200.226,22.461,15.137,16.113,-76.172,399.902
1706146200.230,49.805,8.789,-79.102,-398.926,-1000.000
1706146200.234,30.762,23.438,24.902,25.391,-598.145
1706146200.237,7.324,34.668,132.324,419.922,914.062
1706146200.241,18.555,23.438,56.152,82.520,778.320
1706146200.245,43.457,2.930,-71.777,-358.398,-716.797
1706146200.249,29.785,8.301,-1.465,-124.023,-973.633
1706146200.253,6.836,28.320,123.535,340.820,406.738
1706146200.257,12.695,27.832,106.934,236.328,-888.184
1706146200.261,42.480,7.324,-26.367,-254.883,-163.574
1706146200.264,41.992,3.906,-43.457,-251.465,-1000.000
1706146200.268,16.602,21.973,81.055,245.605,-58.105
1706146200.272,0.488,30.762,140.137,357.910,-779.297
1706146200.276,33.203,11.719,7.324,-140.137,202.148
1706146200.280,56.641,2.930,-68.359,-352.539,-1000.000
1706146200.281,15.625,23.438,61.035,127.441,-335.449
1706146200.285,-0.488,37.109,140.137,421.387,-847.168
1706146200.289,32.715,19.043,33.203,-20.996,493.164
1706146200.293,56.641,1.953,-72.754,-389.648,-1000.000
1706146200.297,28.809,9.277,21.484,-10.254,-701.172
1706146200.301,3.906,24.902,119.629,412.109,799.316
1706146200.305,24.902,24.414,60.547,121.582,886.719
1706146200.308,57.129,1.953,-73.242,-334.961,-576.172
1706146200.312,38.574,9.277,-22.949,-150.391,-1000.000
1706146200.316,12.207,35.645,109.375,324.707,270.996
1706146200.320,8.789,31.250,103.027,264.648,-830.566
1706146200.324,33.203,7.812,-28.809,-238.770,-25.879
1706146200.326,41.992,1.465,-49.316,-304.688,-1000.000
1706146200.330,15.625,16.602,75.684,190.918,-134.277
1706146200.334,-1.465,23.438,126.953,365.723,-780.762
1706146200.338,29.785,7.324,4.883,-117.676,277.344
1706146200.342,47.852,-4.395,-82.520,-372.070,-1000.000
1706146200.346,20.020,12.207,41.016,100.098,-430.176
1706146200.350,0.977,27.832,136.230,423.340,-910.156
1706146200.353,25.879,18.066,36.133,-1.953,581.055
1706146200.357,56.152,1.953,-67.383,-378.906,-937.500
1706146200.361,26.855,7.812,19.043,-34.180,-799.316
1706146200.365,-1.953,21.484,122.559,396.973,659.180
1706146200.369,12.207,16.113,70.801,159.668,991.699
1706146200.372,44.922,2.930,-60.547,-317.871,-408.203
1706146200.376,38.574,8.301,-31.738,-199.707,-1000.000
1706146200.380,16.113,24.414,94.238,284.668,152.832
1706146200.384,7.324,24.902,114.746,297.852,-800.781
1706146200.388,28.809,8.301,-21.973,-203.125,69.336
1706146200.392,40.527,6.836,-80.078,-325.684,-1000.000
1706146200.396,16.602,23.926,46.387,171.875,-222.168
1706146200.399,-7.324,32.227,130.371,383.789,-799.316
1706146200.403,17.090,15.625,21.484,-104.980,358.398
1706146200.407,42.480,1.953,-80.078,-405.273,-1000.000
1706146200.411,20.508,20.508,33.691,41.992,-524.902
1706146200.415,-7.324,37.109,131.836,412.109,996.582
1706146200.417,6.836,25.879,42.480,35.156,707.031
1706146200.421,46.875,2.930,-85.449,-374.023,-799.316
1706146200.425,27.832,8.301,-13.184,-93.262,-915.527
1706146200.429,-1.953,25.391,104.492,349.609,504.395
1706146200.433,2.441,20.508,78.613,194.336,-935.547
1706146200.437,38.574,0.000,-57.129,-283.691,-269.531
1706146200.441,40.527,0.000,-52.734,-240.234,-1000.000
1706146200.444,9.277,25.391,92.773,260.254,17.090
1706146200.448,4.395,31.250,127.930,350.098,-781.250
1706146200.452,34.180,7.812,-10.254,-150.879,150.391
1706146200.456,49.805,1.953,-69.824,-336.914,-1000.000
1706146200.460,20.508,23.926,56.641,145.020,-282.715
1706146200.476,-0.488,32.227,134.277,414.062,-819.824
1706146200.480,24.902,16.113,23.438,-49.316,427.246
1706146200.484,46.875,7.324,-79.590,-387.207,-1000.000
1706146200.488,21.973,24.902,30.273,21.973,-644.043
1706146200.492,-1.465,38.574,131.836,413.086,863.770
1706146200.496,10.742,26.855,48.828,90.820,818.359
1706146200.500,43.945,11.230,-71.289,-361.816,-668.945
1706146200.503,25.391,18.555,-4.883,-149.414,-990.234
1706146200.507,0.488,33.203,105.469,332.031,371.582
1706146200.511,6.348,33.691,93.750,242.676,-868.164
1706146200.515,37.598,17.090,-41.016,-252.441,-116.699
1706146200.519,42.969,13.672,-54.688,-279.785,-1000.000
1706146200.521,13.184,31.250,80.566,220.703,-74.219
1706146200.525,1.465,38.574,130.859,360.840,-777.832
1706146200.529,32.715,24.902,4.883,-127.930,232.422
1706146200.533,50.293,9.277,-73.730,-337.891,-1000.000
1706146200.537,20.020,19.531,42.480,133.789,-384.766
1706146200.541,6.348,30.762,131.836,431.641,-879.395
1706146200.545,31.738,16.113,37.109,0.488,527.344
1706146200.548,47.363,-1.465,-71.777,-373.535,-990.723
1706146200.552,24.902,13.672,17.578,-9.277,-742.676
1706146200.556,6.836,35.645,119.141,398.926,734.863
1706146200.560,10.742,31.738,76.172,103.516,935.059
1706146200.564,34.180,9.766,-58.105,-347.656,-502.441
1706146200.566,31.738,15.625,-30.273,-179.199,-1000.000
1706146200.570,8.789,36.133,100.098,293.945,221.680
1706146200.574,0.977,32.227,109.375,266.113,-816.895
1706146200.578,35.156,13.184,-29.785,-221.191,11.230
1706146200.582,51.758,9.277,-60.547,-308.594,-1000.000
1706146200.586,20.020,27.832,75.195,186.523,-156.738
1706146200.590,-6.836,31.738,134.277,381.836,-783.691
1706146200.593,27.832,14.160,9.277,-104.980,301.758
1706146200.597,50.781,0.488,-84.473,-385.254,-1000.000
1706146200.601,13.184,18.066,42.480,62.988,-460.938
1706146200.605,-5.859,38.574,134.766,412.109,-942.383
1706146200.609,17.090,22.461,28.809,25.391,632.812
1706146200.611,46.387,7.812,-83.984,-382.812,-886.230
1706146200.615,26.367,25.879,13.184,-74.219,-833.496
1706146200.619,-7.324,42.969,129.395,376.953,614.746
1706146200.623,-4.395,31.738,81.055,173.340,-968.750
1706146200.627,31.738,8.789,-56.152,-307.617,-338.379
1706146200.631,30.762,9.277,-36.133,-224.609,-1000.000
1706146200.635,-0.488,28.320,94.727,271.973,104.492
1706146200.638,-0.977,32.715,111.816,317.383,-794.434
1706146200.642,43.457,15.137,-21.973,-188.477,94.238
1706146200.646,55.664,6.836,-62.012,-326.172,-1000.000
1706146200.650,17.090,22.461,63.477,164.062,-236.816
1706146200.654,-2.930,32.715,132.812,398.926,-801.758
1706146200.657,35.645,18.066,22.461,-63.965,388.184
1706146200.661,65.430,4.883,-79.102,-375.977,-1000.000
1706146200.665,25.391,20.508,24.414,54.688,-567.871
1706146200.669,-2.441,34.180,130.859,418.457,949.219
1706146200.673,23.438,23.438,56.152,38.086,746.094
1706146200.677,55.664,8.789,-69.824,-377.441,-757.324
1706146200.681,31.250,17.578,-3.906,-89.355,-937.012
1706146200.684,-2.930,28.320,103.516,354.980,459.473
1706146200.688,1.953,24.902,84.473,199.219,-902.832
1706146200.692,38.574,12.695,-38.574,-280.273,-194.824
1706146200.696,39.551,8.789,-46.875,-248.535,-1000.000
1706146200.700,11.230,20.996,76.172,251.953,-12.695
1706146200.701,7.812,28.320,125.977,347.168,-774.414
1706146200.705,41.504,12.695,-2.441,-155.273,185.059
1706146200.709,55.664,1.953,-76.172,-355.469,-1000.000
1706146200.713,24.414,20.508,53.223,136.230,-317.383
1706146200.717,5.371,28.809,135.254,421.387,-834.961
1706146200.721,29.785,9.277,20.020,-40.527,463.867
1706146200.725,51.270,-4.395,-96.191,-387.695,-1000.000
1706146200.728,30.273,11.719,4.395,0.488,-671.387
1706146200.732,6.836,27.832,123.047,404.297,831.543
1706146200.736,20.508,18.555,61.035,106.934,866.699
1706146200.740,61.523,0.000,-70.801,-344.727,-605.957
1706146200.744,49.805,3.418,-18.555,-136.719,-1000.000
1706146200.746,11.719,23.438,106.445,330.566,309.082
1706146200.750,6.836,28.320,102.051,245.117,-848.633
1706146200.754,32.227,6.348,-28.809,-248.047,-71.289
1706146200.758,31.738,-2.441,-51.758,-285.645,-1000.000
1706146200.762,12.695,18.555,79.102,222.168,-99.121
1706146200.766,1.953,29.297,129.395,373.047,-776.855
1706146200.770,35.156,11.230,-6.836,-128.418,248.535
1706146200.773,50.781,-0.977,-81.543,-380.859,-1000.000
1706146200.777,17.578,16.113,48.828,85.938,-399.414
1706146200.781,9.766,25.879,125.977,409.668,-892.090
1706146200.785,25.391,4.883,20.020,-18.555,569.824
1706146200.789,47.363,-6.348,-83.008,-389.160,-949.707
1706146200.806,25.391,14.648,17.578,-34.668,-772.949
1706146200.810,2.930,35.156,123.047,386.719,703.125
1706146200.814,11.230,30.273,68.848,133.301,958.496
1706146200.818,36.621,13.184,-61.035,-333.496,-463.867
1706146200.822,31.250,16.602,-27.832,-191.406,-1000.000
1706146200.826,9.766,31.738,91.309,291.504,192.871
1706146200.830,5.371,35.156,103.027,279.785,-808.594
1706146200.833,25.879,18.066,-15.625,-207.520,48.828
1706146200.837,39.062,12.695,-52.246,-306.152,-1000.000
1706146200.841,13.672,30.762,69.336,175.781,-203.125
1706146200.845,-12.695,34.668,129.395,383.301,-791.992
1706146200.849,14.648,21.484,10.742,-80.078,339.844
1706146200.851,41.992,12.695,-83.496,-369.141,-1000.000
1706146200.855,22.461,28.320,25.391,62.988,-512.695
1706146200.859,5.371,42.480,125.000,422.363,-989.746
1706146200.863,18.555,34.180,40.527,37.109,674.805
1706146200.867,51.270,22.949,-84.473,-374.512,-844.727
1706146200.871,34.180,28.809,-4.395,-78.125,-878.906
1706146200.875,0.000,42.480,115.234,361.816,555.664
1706146200.878,-2.930,35.645,84.473,178.711,-953.125
1706146200.882,35.645,12.695,-49.316,-294.434,-305.664
1706146200.886,34.668,17.090,-42.969,-225.586,-1000.000
1706146200.890,-0.488,39.062,92.773,269.043,59.570
1706146200.894,-3.906,43.945,125.000,330.078,-784.668
1706146200.897,33.691,25.879,-17.090,-171.875,132.324
1706146200.901,46.875,14.160,-81.543,-333.496,-1000.000
1706146200.905,18.066,25.879,53.223,157.715,-270.508
1706146200.909,-2.441,37.109,135.742,405.273,-812.500
1706146200.913,18.066,23.438,14.648,-65.918,408.691
1706146200.917,44.434,9.277,-89.355,-402.344,-1000.000
1706146200.921,18.066,27.344,25.879,4.395,-600.098
1706146200.924,-1.465,49.805,132.812,405.273,915.527
1706146200.928,21.484,39.551,48.340,75.195,771.484
1706146200.932,56.641,19.531,-77.637,-367.676,-725.098
1706146200.936,36.621,29.785,0.488,-121.094,-974.121
1706146200.940,18.555,53.223,112.305,359.863,403.809
1706146200.942,31.250,54.199,90.332,236.816,-886.719
1706146200.946,57.129,30.762,-38.086,-262.695,-161.621
1706146200.950,55.664,27.832,-43.945,-264.160,-1000.000
1706146200.954,26.855,48.340,84.473,242.676,-45.898
1706146200.958,12.207,55.176,125.488,364.258,-777.344
1706146200.962,32.227,37.109,-5.371,-127.441,204.590
1706146200.966,49.316,28.809,-78.613,-344.238,-1000.000
1706146200.969,21.484,41.992,42.969,106.934,-354.980
1706146200.973,-1.953,47.852,129.395,404.297,-858.887
1706146200.977,19.531,34.668,36.621,-23.438,502.930
1706146200.981,42.969,17.090,-67.383,-375.977,-1000.000
1706146200.985,29.297,29.785,20.508,-3.906,-703.125
1706146200.986,10.742,46.875,123.047,407.227,787.598
1706146200.990,15.137,38.086,65.918,121.094,903.809
1706146200.994,45.410,14.648,-61.035,-344.238,-544.922
1706146200.998,37.109,14.648,-22.461,-169.922,-1000.000
1706146201.002,12.207,35.645,101.562,317.871,250.488
1706146201.006,4.883,34.180,104.980,272.461,-824.707
1706146201.010,34.668,15.137,-27.832,-237.793,-12.695
1706146201.013,38.574,11.230,-63.965,-305.176,-1000.000
1706146201.017,10.254,25.391,59.570,193.848,-141.602
1706146201.021,8.301,36.621,131.836,367.676,-781.738
1706146201.025,34.668,20.508,13.184,-114.746,287.598
1706146201.029,50.781,4.883,-76.660,-368.164,-1000.000
1706146201.031,20.508,25.391,49.316,85.449,-437.500
1706146201.035,0.488,42.480,141.602,425.293,-923.340
1706146201.039,25.391,29.297,40.039,18.555,609.863
1706146201.043,58.105,14.648,-75.195,-369.141,-910.156
1706146201.047,41.016,31.250,13.672,-44.434,-804.688
1706146201.051,11.719,44.434,125.977,388.184,658.691
1706146201.055,17.090,36.621,80.566,174.316,994.141
1706146201.058,46.387,19.043,-53.223,-307.617,-400.879
1706146201.062,37.109,17.578,-24.414,-205.566,-1000.000
1706146201.066,8.789,31.250,104.004,274.414,128.906
1706146201.070,-2.441,27.344,112.793,305.664,-799.805
1706146201.074,31.738,9.766,-20.020,-181.641,70.312
1706146201.077,44.922,9.277,-62.012,-319.336,-1000.000
1706146201.081,10.254,28.320,53.223,160.645,-216.797
1706146201.085,4.883,39.062,114.746,378.906,-795.898
1706146201.089,34.668,19.043,7.812,-95.215,364.258
1706146201.093,41.992,2.441,-83.984,-385.742,-1000.000
1706146201.097,8.789,19.531,21.484,48.340,-540.039
1706146201.101,-7.812,31.250,116.211,417.969,979.980
1706146201.104,4.395,20.020,32.715,36.133,725.098
1706146201.108,33.203,5.371,-80.566,-397.461,-792.969
1706146201.112,26.855,12.207,-1.465,-114.258,-899.902
1706146201.116,3.418,33.691,113.770,343.262,523.926
1706146201.120,4.883,29.297,82.520,190.918,-919.922
1706146201.122,34.668,-1.465,-46.387,-285.156,-236.328
1706146201.126,35.645,-1.953,-43.457,-228.516,-1000.000
1706146201.130,7.812,24.902,84.961,260.254,12.207
1706146201.134,5.371,34.668,127.441,339.355,-777.344
1706146201.138,43.945,14.648,-11.230,-159.668,178.711
1706146201.142,57.617,1.953,-82.520,-339.844,-1000.000
1706146201.146,26.367,20.508,47.852,137.207,-303.711
1706146201.149,13.672,30.273,136.719,411.621,-828.613
1706146201.153,43.945,14.160,31.738,-31.250,456.543
1706146201.157,60.547,-3.418,-77.148,-373.535,-1000.000
1706146201.161,21.484,6.836,26.855,23.438,-619.629
1706146201.165,6.348,26.367,132.812,429.199,888.184
1706146201.181,23.438,24.414,65.430,112.793,842.773
1706146201.185,51.758,6.836,-64.453,-345.703,-632.812
1706146201.189,48.340,16.113,-11.230,-128.418,-999.512
1706146201.193,29.785,35.156,107.422,344.238,359.863
1706146201.197,26.367,29.785,100.586,253.418,-859.375
1706146201.201,52.734,11.719,-33.691,-245.605,-103.027
1706146201.205,51.758,9.766,-62.500,-283.203,-1000.000
1706146201.208,14.648,26.855,67.383,218.750,-69.336
1706146201.212,3.418,33.691,119.629,368.652,-773.926
1706146201.216,26.855,13.672,-8.789,-121.094,243.652
1706146201.220,47.852,6.836,-79.102,-353.516,-1000.000
1706146201.224,25.879,25.391,51.270,104.980,-373.535
1706146201.226,4.883,36.621,135.742,427.246,-868.652
1706146201.230,33.691,22.949,32.227,5.371,539.551
1706146201.234,51.758,7.324,-79.102,-377.930,-978.516
1706146201.238,19.531,21.973,14.648,-9.766,-739.746
1706146201.242,5.371,39.062,117.676,409.668,744.629
1706146201.246,21.973,33.203,62.988,148.926,942.383
1706146201.250,50.781,14.160,-62.012,-337.402,-489.258
1706146201.253,37.598,16.602,-24.902,-214.844,-1000.000
1706146201.257,14.160,28.809,100.098,286.133,207.031
1706146201.261,24.902,31.738,103.516,277.832,-825.684
1706146201.265,68.359,17.578,-20.020,-220.215,-2.930
1706146201.269,62.012,5.859,-50.293,-311.035,-1000.000
1706146201.272,21.484,15.625,63.477,194.336,-176.758
1706146201.276,13.184,21.973,131.836,390.625,-788.574
1706146201.280,33.691,5.371,17.090,-89.844,312.988
1706146201.284,51.758,-5.371,-73.242,-363.281,-1000.000
1706146201.288,29.297,14.648,40.527,78.125,-490.234
1706146201.292,7.812,28.320,135.254,424.316,-965.820
1706146201.296,26.367,15.625,42.969,16.113,630.859
1706146201.299,50.293,-0.488,-76.172,-396.484,-886.719
1706146201.303,34.668,7.324,1.465,-75.195,-852.539
1706146201.307,20.020,25.391,110.840,367.188,580.566
1706146201.311,25.391,23.926,82.520,172.852,-963.867
1706146201.315,46.875,3.906,-47.852,-290.039,-323.242
1706146201.316,41.992,4.395,-40.039,-195.801,-1000.000
1706146201.320,20.508,27.344,87.402,289.551,94.727
1706146201.324,15.625,36.621,111.816,341.797,-788.086
1706146201.328,48.340,16.602,-20.996,-154.297,107.910
1706146201.332,47.852,3.906,-68.848,-311.035,-1000.000
1706146201.336,10.254,21.484,62.012,169.434,-247.559
1706146201.340,-1.465,36.133,138.672,388.184,-806.152
1706146201.343,28.320,23.926,25.879,-76.660,408.203
1706146201.347,50.781,14.160,-81.543,-378.418,-1000.000
1706146201.351,20.996,33.691,27.832,32.715,-561.523
1706146201.355,-5.859,43.945,129.883,411.621,958.008
1706146201.359,13.672,35.645,45.410,62.500,770.508
1706146201.362,52.246,17.578,-79.590,-369.629,-724.609
1706146201.366,34.668,19.531,-10.254,-108.398,-947.266
1706146201.370,2.930,36.133,116.211,352.539,447.754
1706146201.374,10.742,30.273,93.750,219.238,-897.461
1706146201.378,41.992,7.812,-43.457,-270.508,-186.523
1706146201.382,43.945,6.836,-41.992,-234.863,-1000.000
1706146201.386,26.855,28.809,81.055,255.371,-21.484
1706146201.389,16.602,33.691,112.305,336.914,-774.414
1706146201.393,38.574,15.625,-7.324,-164.551,192.383
1706146201.397,59.082,6.348,-65.430,-375.000,-1000.000
1706146201.401,34.668,13.184,49.805,103.516,-322.266
1706146201.405,13.672,29.785,125.977,391.113,-838.379
1706146201.406,29.785,22.949,23.438,-56.152,475.586
1706146201.410,57.617,9.277,-80.078,-382.324,-1000.000
1706146201.414,46.387,24.414,20.996,22.949,-667.969
1706146201.418,23.438,32.715,118.164,419.434,833.496
1706146201.422,29.785,22.461,53.223,109.863,865.723
1706146201.426,59.082,7.324,-73.730,-339.844,-599.121
1706146201.430,44.922,10.742,-20.996,-140.137,-1000.000
1706146201.433,16.113,26.367,94.238,338.379,287.109
1706146201.437,11.719,26.367,91.797,276.855,-838.867
1706146201.441,41.992,7.812,-27.832,-213.379,-46.875
1706146201.445,46.875,-0.488,-58.594,-273.438,-1000.000
1706146201.449,13.672,20.020,67.383,225.586,-119.629
1706146201.451,0.000,29.297,132.812,394.043,-778.809
1706146201.455,23.926,7.812,13.672,-96.680,267.090
1706146201.459,42.480,-3.418,-75.684,-345.703,-1000.000
1706146201.463,15.625,9.766,48.340,102.051,-419.434
1706146201.467,0.488,20.508,137.207,403.809,-903.320
1706146201.471,25.391,11.230,32.715,-22.461,573.242
1706146201.475,52.734,-4.883,-81.543,-392.090,-944.336
1706146201.478,32.715,7.812,5.371,-42.480,-795.898
1706146201.482,10.742,26.855,123.535,379.883,672.363
1706146201.486,21.484,18.066,75.195,149.414,977.051
1706146201.490,50.781,0.488,-59.570,-315.918,-441.895
1706146201.494,41.992,6.836,-27.832,-184.082,-1000.000
1706146201.496,12.695,25.391,94.727,309.570,173.828
1706146201.500,11.719,28.320,106.934,323.242,-805.176
1706146201.504,41.992,9.277,-22.461,-179.688,56.152
1706146201.508,46.875,4.395,-67.383,-313.965,-1000.000
1706146201.512,20.996,25.391,59.570,174.316,-204.590
1706146201.516,11.230,34.668,127.930,400.391,-792.480
1706146201.520,37.109,13.672,-6.348,-83.496,332.031
1706146201.523,67.871,4.395,-87.891,-389.160,-1000.000
1706146201.527,46.387,16.602,45.898,58.594,-505.859
1706146201.531,10.742,20.996,127.441,419.434,-987.793
1706146201.535,17.578,14.160,35.645,32.227,679.688
1706146201.539,47.852,3.906,-80.566,-386.230,-831.543
1706146201.556,40.527,16.602,-5.859,-90.332,-886.230
1706146201.560,17.090,30.762,105.957,356.445,534.180
1706146201.564,21.484,23.438,80.566,186.035,-936.523
1706146201.568,45.410,7.812,-44.922,-300.781,-272.461
1706146201.572,35.156,9.277,-40.039,-253.906,-1000.000
1706146201.576,8.301,21.973,74.219,238.770,45.898
1706146201.580,-5.371,26.367,104.492,300.781,-778.320
1706146201.583,17.090,13.184,-9.766,-197.266,155.273
1706146201.587,32.715,3.418,-71.289,-364.746,-1000.000
1706146201.591,-1.465,15.137,53.223,120.117,-283.691
1706146201.595,-22.949,21.973,135.742,379.395,-817.383
1706146201.599,-2.930,10.742,25.879,-84.961,417.480
1706146201.601,19.531,0.977,-70.312,-416.016,-1000.000
1706146201.605,-6.836,5.859,43.457,-8.301,-613.770
1706146201.609,-58.594,0.488,150.879,359.863,897.461
1706146201.613,-54.688,-8.301,77.148,24.414,810.547
1706146201.617,-22.461,-5.859,-55.664,-417.969,-678.223
1706146201.621,-46.875,10.742,-4.883,-209.473,-989.746
1706146201.625,-97.168,26.855,110.352,238.281,372.070
1706146201.628,-113.770,33.203,103.027,121.094,-865.234
1706146201.632,-96.680,13.672,-33.203,-384.766,-115.234
1706146201.636,-114.746,7.812,-56.641,-420.898,-1000.000
1706146201.640,-151.855,30.762,79.590,59.570,-55.664
1706146201.644,-170.898,38.086,139.160,193.848,-774.414
1706146201.646,-153.320,20.508,6.836,-309.082,221.191
1706146201.650,-133.301,14.160,-79.590,-553.223,-1000.000
1706146201.654,-155.762,28.809,47.363,-87.402,-344.727
1706146201.658,-173.340,41.016,133.301,229.980,-852.051
1706146201.662,-145.020,33.203,20.996,-196.777,518.066
1706146201.666,-96.680,22.461,-93.750,-561.523,-1000.000
1706146201.670,-103.027,40.039,6.836,-174.805,-714.355
1706146201.673,-119.141,55.176,122.070,264.160,781.738
1706146201.677,-95.215,50.293,52.246,-12.695,910.156
1706146201.681,-62.500,33.203,-86.914,-469.727,-546.387
1706146201.685,-47.363,38.086,-35.645,-264.160,-1000.000
1706146201.689,-45.898,53.711,74.707,250.000,262.695
1706146201.691,-46.875,54.688,78.613,217.773,-822.754
1706146201.695,-13.672,37.598,-49.316,-280.273,0.000
1706146201.699,11.719,25.879,-83.008,-338.379,-1000.000
1706146201.703,-9.766,40.039,43.457,175.781,-147.949
1706146201.707,-19.043,49.805,110.352,362.305,-782.715
1706146201.711,23.926,29.785,-6.348,-115.234,296.387
1706146201.715,55.176,16.113,-96.191,-366.211,-1000.000
1706146201.718,40.527,34.180,28.320,92.773,-457.520
1706146201.722,30.273,46.387,103.516,431.641,-937.012
1706146201.726,53.223,27.344,11.230,23.438,624.023
1706146201.730,76.660,10.742,-83.008,-367.188,-898.926
1706146201.734,64.941,24.414,-5.371,-20.508,-823.730
1706146201.736,52.246,31.250,103.516,425.781,629.883
1706146201.740,58.594,20.020,73.242,213.867,-976.562
1706146201.744,91.797,8.789,-54.199,-260.742,-349.121
1706146201.748,88.867,11.719,-47.852,-171.875,-1000.000
1706146201.752,65.918,31.738,63.965,311.523,110.352
1706146201.756,58.105,35.645,84.473,350.586,-791.016
1706146201.760,75.195,12.207,-30.273,-145.508,96.680
1706146201.763,90.820,3.418,-80.566,-287.109,-1000.000
1706146201.767,64.453,21.973,39.551,204.590,-234.863
1706146201.771,43.945,33.203,121.582,440.918,-800.293
1706146201.775,64.941,17.090,14.648,-31.250,380.371
1706146201.779,90.820,4.883,-87.891,-341.797,-1000.000
1706146201.781,75.684,20.996,23.926,92.773,-533.691
1706146201.785,55.664,34.180,125.488,467.773,986.328
1706146201.789,78.613,24.902,39.551,97.168,740.723
1706146201.793,109.863,8.301,-84.473,-329.102,-764.160
1706146201.797,85.938,13.184,-11.230,-57.129,-921.875
1706146201.801,56.641,24.414,107.422,405.273,487.793
1706146201.805,58.594,25.391,82.520,256.836,-905.273
1706146201.808,88.867,7.812,-53.711,-236.816,-212.402
1706146201.812,85.938,0.488,-46.387,-204.590,-1000.000
1706146201.816,50.781,16.602,86.426,290.527,2.930
1706146201.820,39.062,23.438,120.117,395.996,-778.809
1706146201.824,71.777,7.324,-6.836,-104.980,177.734
1706146201.827,91.309,0.488,-69.824,-305.664,-1000.000
1706146201.831,70.312,22.461,56.152,182.129,-314.941
1706146201.835,58.105,37.598,123.535,460.938,-835.449
1706146201.839,80.078,25.391,10.742,5.859,467.773
1706146201.843,101.074,11.230,-84.473,-340.332,-1000.000
1706146201.847,78.125,22.461,20.508,61.035,-660.645
1706146201.851,51.758,31.250,115.234,451.660,847.656
1706146201.854,53.223,21.973,47.852,128.906,855.957
1706146201.858,83.496,13.672,-63.965,-319.824,-622.070
1706146201.862,69.336,17.578,-13.184,-108.398,-1000.000
1706146201.866,40.039,31.738,101.074,365.234,330.078
1706146201.870,38.574,35.156,100.098,282.715,-845.215
1706146201.872,65.918,15.137,-28.320,-216.797,-67.871
1706146201.876,75.195,12.207,-52.734,-259.277,-1000.000
1706146201.880,53.223,32.715,70.312,249.512,-98.633
1706146201.884,39.062,37.109,124.023,421.387,-776.367
1706146201.888,65.430,19.531,5.859,-92.285,254.395
1706146201.892,82.520,4.883,-75.195,-349.609,-1000.000
1706146201.896,50.781,16.602,39.062,112.305,-416.016
1706146201.899,36.133,34.668,135.254,430.176,-902.832
1706146201.903,54.688,28.809,45.898,19.531,567.871
1706146201.907,74.219,11.230,-81.543,-361.816,-957.520
1706146201.911,51.270,17.578,7.812,-13.184,-763.672
1706146201.915,29.785,30.273,122.070,420.410,714.355
1706146201.931,41.504,26.367,72.754,180.664,961.426
1706146201.935,71.289,13.184,-56.641,-299.805,-460.938
1706146201.939,64.941,19.531,-22.949,-170.410,-1000.000
1706146201.943,37.109,40.527,102.539,320.312,187.012
1706146201.947,25.391,44.922,114.258,309.082,-808.105
1706146201.951,52.246,23.438,-25.391,-186.523,38.574
1706146201.955,63.477,12.695,-70.312,-284.668,-1000.000
1706146201.958,28.320,31.738,62.500,203.125,-187.988
1706146201.962,13.672,43.457,128.418,411.133,-788.086
1706146201.966,43.457,28.809,4.883,-63.477,325.684
1706146201.970,63.477,22.461,-85.449,-359.375,-1000.000
1706146201.974,37.598,39.062,36.133,87.891,-494.141
1706146201.977,15.137,45.898,132.324,438.965,-971.680
1706146201.981,35.645,34.180,40.527,33.203,665.039
1706146201.985,61.035,18.555,-75.684,-378.418,-850.586
1706146201.989,37.109,25.879,2.930,-76.660,-871.094
1706146201.993,12.695,35.645,107.910,376.465,561.035
1706146201.997,17.578,27.832,76.660,190.918,-958.008
1706146202.001,53.711,13.672,-48.340,-289.062,-312.012
1706146202.004,49.316,15.137,-43.945,-211.914,-1000.000
1706146202.008,18.066,31.250,73.242,280.273,63.477
1706146202.012,17.578,34.180,104.492,341.797,-785.156
1706146202.016,44.922,16.602,-13.184,-166.016,122.559
1706146202.020,51.758,5.371,-60.059,-327.148,-1000.000
1706146202.021,25.391,20.020,61.035,180.176,-255.859
1706146202.025,14.160,38.086,132.324,430.664,-808.105
1706146202.029,37.109,27.344,31.738,-41.504,406.738
1706146202.033,53.711,14.648,-68.848,-367.188,-1000.000
1706146202.037,32.715,33.203,27.344,40.039,-605.957
1706146202.041,19.531,47.852,123.535,422.363,906.250
1706146202.045,35.645,38.086,53.223,84.473,791.504
1706146202.048,56.641,19.043,-67.383,-356.934,-699.219
1706146202.052,42.480,19.531,-13.184,-118.652,-981.445
1706146202.056,18.066,31.250,108.398,359.375,389.648
1706146202.060,20.996,29.785,100.586,251.953,-880.371
1706146202.064,57.129,16.602,-52.246,-252.441,-148.438
1706146202.066,61.035,13.672,-72.754,-259.277,-1000.000
1706146202.070,24.414,34.180,73.730,240.723,-63.965
1706146202.074,0.000,43.945,138.184,363.770,-778.809
1706146202.078,28.809,21.484,13.672,-124.512,208.496
1706146202.082,51.270,10.742,-67.383,-346.680,-1000.000
1706146202.086,34.668,30.273,47.852,138.672,-350.586
1706146202.090,12.207,43.457,128.418,426.270,-856.445
1706146202.093,30.273,32.715,28.809,-35.645,499.512
1706146202.097,62.988,16.602,-90.332,-397.949,-1000.000
1706146202.101,33.691,28.809,11.230,-23.438,-708.496
1706146202.105,5.371,42.969,128.418,388.672,789.062
1706146202.109,20.020,34.180,66.406,105.469,895.020
1706146202.111,56.641,17.090,-57.617,-348.633,-561.035
1706146202.115,42.969,15.625,-11.719,-158.691,-1000.000
1706146202.119,18.555,25.391,102.051,328.125,258.301
1706146202.123,15.137,22.949,98.145,274.902,-837.891
1706146202.127,42.480,9.277,-27.344,-228.027,-41.016
1706146202.131,56.641,8.789,-50.781,-290.039,-1000.000
1706146202.135,27.344,24.902,71.777,220.215,-148.438
1706146202.138,7.324,33.203,127.930,409.180,-785.645
1706146202.142,26.855,15.625,18.066,-87.402,276.855
1706146202.146,47.852,5.371,-55.664,-354.004,-1000.000
1706146202.150,30.762,23.926,61.035,109.863,-444.336
1706146202.154,13.184,36.133,146.973,437.500,-925.293
1706146202.156,25.879,21.484,50.293,17.090,597.168
1706146202.160,43.457,6.348,-63.477,-375.000,-925.781
1706146202.164,18.066,20.508,20.996,-13.184,-805.664
1706146202.168,-2.930,36.621,125.977,413.574,661.621
1706146202.172,14.160,28.809,80.078,162.109,993.164
1706146202.176,42.480,12.207,-55.664,-318.359,-405.762
1706146202.180,22.949,13.184,-39.551,-207.520,-1000.000
1706146202.183,-3.418,33.203,79.590,290.039,118.164
1706146202.187,-5.371,44.434,112.793,307.617,-798.340
1706146202.191,23.438,22.461,-1.953,-192.383,79.102
1706146202.195,36.133,8.789,-56.641,-317.383,-1000.000
1706146202.199,5.859,26.855,62.012,164.551,-225.098
1706146202.201,-8.301,38.086,130.371,367.188,-797.852
1706146202.205,19.043,22.949,15.625,-100.098,357.910
1706146202.209,39.551,7.324,-85.449,-387.695,-1000.000
1706146202.213,15.625,25.391,23.438,44.434,-537.598
1706146202.217,-10.742,38.574,126.953,421.875,983.887
1706146202.221,8.301,26.367,46.387,45.410,714.355
1706146202.225,47.852,14.648,-76.660,-384.277,-795.410
1706146202.228,30.762,25.391,0.000,-102.539,-924.316
1706146202.232,7.812,38.086,120.117,355.469,487.305
1706146202.236,20.996,36.621,87.891,212.402,-925.781
1706146202.240,53.223,20.508,-49.805,-273.438,-248.047
1706146202.244,44.434,15.137,-41.992,-244.629,-1000.000
1706146202.246,7.812,31.250,90.332,252.930,7.324
1706146202.250,3.906,35.156,122.070,341.797,-782.715
1706146202.254,35.645,18.555,-2.930,-150.391,150.879
1706146202.258,47.363,12.695,-62.012,-330.566,-1000.000
1706146202.262,25.391,21.484,57.129,145.508,-311.523
1706146202.266,8.301,28.320,134.766,408.203,-833.008
1706146202.270,21.973,17.090,19.531,-52.246,409.180
1706146202.273,43.457,5.371,-85.449,-394.531,-1000.000
1706146202.277,20.996,19.531,32.227,9.277,-646.484
1706146202.281,4.883,30.273,130.859,409.668,854.004
1706146202.285,15.137,20.996,59.082,98.145,822.754
1706146202.289,43.945,1.953,-75.195,-348.145,-662.109
1706146202.292,41.992,7.324,-24.902,-133.789,-1000.000
1706146202.296,9.766,22.949,98.633,338.867,338.867
1706146202.300,-5.859,23.926,95.703,238.281,-868.164
1706146202.304,19.043,12.695,-28.809,-265.625,-109.375
1706146202.308,29.297,7.324,-48.340,-290.039,-1000.000
1706146202.312,12.695,23.926,67.871,210.938,-101.562
1706146202.316,-2.930,35.645,116.211,346.191,-781.250
1706146202.319,17.090,23.926,8.301,-155.273,228.027
1706146202.323,40.039,7.812,-67.871,-376.465,-1000.000
1706146202.327,15.625,19.531,48.340,109.375,-414.551
1706146202.331,0.488,32.715,131.836,423.340,-898.926
1706146202.335,20.020,16.602,33.203,-14.160,526.855
1706146202.351,41.016,0.488,-82.520,-387.695,-993.164
1706146202.355,23.926,11.719,14.648,-20.508,-763.672
1706146202.359,9.277,29.297,125.000,403.320,713.867
1706146202.363,18.066,20.020,64.453,140.625,929.199
1706146202.367,39.062,-1.953,-59.082,-326.660,-508.301
1706146202.371,29.297,0.488,-30.762,-170.410,-1000.000
1706146202.375,12.207,22.949,96.680,312.012,177.734
1706146202.378,10.254,24.414,124.023,291.016,-820.801
1706146202.382,40.527,0.488,-15.625,-218.750,14.160
1706146202.386,52.246,-2.441,-64.941,-325.684,-1000.000
1706146202.390,20.996,20.508,58.594,172.363,-183.594
1706146202.394,-1.953,32.227,125.977,385.254,-789.062
1706146202.396,22.949,15.137,8.301,-93.262,301.758
1706146202.400,52.734,-2.441,-75.684,-375.000,-1000.000
1706146202.404,20.508,11.719,43.945,73.242,-497.559
1706146202.408,-1.953,29.785,132.812,407.227,-974.609
1706146202.412,25.879,21.484,43.457,7.324,629.883
1706146202.416,59.570,2.441,-79.102,-379.395,-887.695
1706146202.420,37.109,11.230,4.395,-57.129,-870.605
1706146202.423,8.301,25.391,121.094,371.094,569.336
1706146202.427,9.277,19.043,75.195,173.828,-990.234
1706146202.431,40.039,-0.488,-53.711,-297.852,-375.000
1706146202.435,42.480,7.812,-28.320,-209.473,-1000.000
1706146202.439,18.555,25.879,82.031,286.133,74.707
1706146202.442,8.789,24.902,105.957,319.336,-794.434
1706146202.446,36.621,10.254,-14.648,-178.223,104.492
1706146202.450,54.688,2.441,-63.965,-327.637,-1000.000
1706146202.454,18.066,19.531,53.711,149.902,-259.766
1706146202.458,-5.859,33.691,124.023,390.137,-810.059
1706146202.462,25.391,22.461,24.902,-70.801,393.555
1706146202.466,48.340,5.859,-72.266,-382.812,-1000.000
1706146202.469,23.926,22.461,29.785,44.922,-580.078
1706146202.473,6.348,38.086,117.188,424.805,935.547
1706146202.477,17.578,24.902,47.363,66.895,763.184
1706146202.481,45.410,9.277,-62.012,-367.676,-733.398
1706146202.485,39.062,14.648,-0.488,-115.234,-958.984
1706146202.486,9.766,31.738,110.840,346.680,422.363
1706146202.490,8.301,30.762,100.586,226.074,-891.113
1706146202.494,45.898,11.230,-27.832,-266.602,-173.340
1706146202.498,48.828,6.836,-47.363,-245.605,-1000.000
1706146202.502,17.090,22.949,76.660,265.625,-29.297
1706146202.506,0.977,27.344,116.211,362.793,-775.391
1706146202.510,26.367,8.789,-3.906,-138.672,195.801
1706146202.513,51.758,-1.465,-74.219,-346.191,-1000.000
1706146202.517,25.391,18.066,47.363,120.605,-332.520
1706146202.521,-1.465,28.320,142.578,398.926,-845.215
1706146202.525,16.602,8.301,26.855,-50.293,497.070
1706146202.529,47.852,-5.371,-89.355,-390.625,-1000.000
1706146202.531,30.762,14.648,23.438,0.488,-676.270
1706146202.535,4.395,32.715,138.184,390.137,825.195
1706146202.539,14.160,20.996,73.242,93.750,888.672
1706146202.543,40.039,7.324,-58.105,-345.703,-567.871
1706146202.547,28.320,13.184,-19.043,-139.648,-1000.000
1706146202.551,4.395,28.809,87.402,325.684,284.668
1706146202.555,-1.465,27.344,86.914,248.047,-832.520
1706146202.558,28.809,5.859,-39.062,-241.211,-39.551
1706146202.562,43.945,5.859,-55.664,-293.457,-1000.000
1706146202.566,19.531,25.391,75.684,207.031,-110.840
1706146202.570,4.883,32.227,125.977,375.000,-775.879
1706146202.574,31.250,15.625,7.812,-123.047,276.367
1706146202.576,48.340,3.418,-68.359,-381.836,-1000.000
1706146202.580,15.137,21.973,48.828,84.961,-404.785
1706146202.584,-2.930,33.691,125.977,412.598,-894.043
1706146202.588,21.973,19.531,37.109,-4.395,590.332
1706146202.592,45.898,2.930,-63.477,-384.766,-928.223
1706146202.596,27.832,14.648,10.742,-41.504,-786.133
1706146202.600,2.441,24.414,111.328,387.207,683.594
1706146202.603,5.859,13.184,79.102,151.855,993.164
1706146202.607,28.320,0.977,-36.133,-316.406,-410.156
1706146202.611,19.531,7.812,-20.508,-191.406,-1000.000
1706146202.615,-0.488,27.344,88.379,289.551,169.922
1706146202.619,-9.277,28.809,107.910,280.273,-797.363
1706146202.621,14.160,9.277,-11.719,-218.262,69.336
1706146202.625,30.762,5.371,-57.129,-327.637,-1000.000
1706146202.629,4.395,24.902,63.965,181.641,-198.242
1706146202.633,-3.906,34.668,134.277,391.602,-790.527
1706146202.637,23.926,17.578,22.949,-102.539,359.375
1706146202.641,45.410,8.789,-71.289,-373.535,-1000.000
1706146202.645,16.113,25.879,33.691,76.172,-519.531
1706146202.648,-13.672,38.574,129.883,416.504,-997.559
1706146202.652,11.719,33.203,56.641,31.738,702.637
1706146202.656,45.898,15.137,-62.988,-377.441,-809.570
1706146202.660,23.926,19.043,3.906,-83.008,-890.625
1706146202.664,0.488,35.645,119.629,365.234,541.016
1706146202.666,8.789,30.762,93.750,198.730,-924.316
1706146202.670,43.945,8.789,-40.527,-276.367,-256.348
1706146202.674,44.922,10.742,-33.691,-227.051,-1000.000
1706146202.678,11.719,31.738,92.773,258.301,50.293
1706146202.682,2.930,34.668,117.188,332.031,-778.320
1706146202.686,43.945,12.695,-14.160,-153.320,154.785
1706146202.690,51.758,-1.465,-69.824,-339.844,-1000.000
1706146202.693,14.648,18.555,57.129,129.883,-272.949
1706146202.697,-2.441,33.691,133.789,403.320,-812.988
1706146202.701,18.066,15.625,26.855,-58.594,432.129
1706146202.705,50.781,2.441,-75.195,-393.066,-1000.000
1706146202.709,29.785,21.973,27.344,27.344,-608.887
1706146202.726,7.812,36.133,126.953,425.781,901.855
1706146202.730,25.391,24.414,65.430,86.914,822.754
1706146202.734,56.641,6.348,-58.105,-361.328,-664.062
1706146202.738,40.527,11.719,-4.395,-124.512,-982.910
1706146202.742,11.719,27.344,104.980,336.914,386.230
1706146202.746,2.930,31.250,86.914,229.004,-861.816
1706146202.750,29.785,15.137,-35.156,-262.695,-106.445
1706146202.753,38.574,9.766,-42.480,-288.086,-1000.000
1706146202.757,10.254,25.879,75.195,210.938,-65.918
1706146202.761,-1.953,32.227,124.512,360.352,-772.949
1706146202.765,30.762,15.137,7.812,-136.719,233.398
1706146202.769,44.434,2.930,-67.871,-357.910,-1000.000
1706146202.772,11.230,16.602,47.363,113.770,-362.793
1706146202.776,-5.371,29.297,126.953,403.809,-867.676
1706146202.780,22.949,20.020,36.133,-26.367,543.945
1706146202.784,56.152,6.836,-71.289,-389.160,-977.051
1706146202.788,26.367,21.973,15.625,-23.438,-717.285
1706146202.792,6.348,33.203,117.676,404.785,774.414
1706146202.796,21.484,23.438,68.848,137.207,930.664
1706146202.799,48.340,12.695,-56.641,-326.172,-501.465
1706146202.803,43.945,14.160,-31.738,-164.551,-1000.000
1706146202.807,15.137,29.297,91.309,314.453,224.121
1706146202.811,7.812,33.203,113.281,284.668,-810.547
1706146202.815,59.082,16.602,-20.996,-215.820,20.020
1706146202.817,65.918,11.719,-56.152,-302.246,-1000.000
1706146202.821,5.859,21.484,75.195,185.547,-149.902
1706146202.825,-14.160,30.762,138.184,362.793,-779.785
1706146202.829,14.648,20.508,21.973,-134.277,312.988
1706146202.833,24.414,5.859,-68.848,-397.949,-1000.000
1706146202.837,-15.625,19.043,45.410,59.082,-441.895
1706146202.841,-35.645,32.227,136.230,390.137,-927.734
1706146202.844,-15.137,21.484,42.969,-18.555,649.414
1706146202.848,14.160,8.301,-83.984,-418.457,-871.582
1706146202.852,3.906,26.855,0.000,-98.633,-823.242
1706146202.856,-12.207,40.527,115.723,345.703,639.648
1706146202.860,-6.836,31.250,76.172,154.785,-969.238
1706146202.861,26.855,12.207,-45.898,-312.500,-345.215
1706146202.865,34.668,17.090,-26.855,-227.051,-1000.000
1706146202.869,11.719,39.551,93.262,270.996,120.605
1706146202.873,2.930,33.691,105.957,324.219,-789.551
1706146202.877,30.273,12.207,-26.367,-179.688,103.516
1706146202.881,43.945,9.277,-69.336,-334.473,-1000.000
1706146202.885,16.113,26.855,59.082,150.879,-229.004
1706146202.888,-6.836,33.203,127.930,384.766,-796.387
1706146202.892,23.438,17.090,13.672,-89.844,375.000
1706146202.896,44.922,11.230,-70.801,-394.531,-1000.000
1706146202.900,13.184,28.809,40.527,40.527,-537.598
1706146202.904,-0.977,37.598,128.906,409.180,975.586
1706146202.906,19.531,24.414,49.316,59.082,758.301
1706146202.910,48.340,8.301,-62.012,-357.422,-741.699
1706146202.914,30.273,15.137,1.465,-94.727,-921.875
1706146202.918,6.836,30.273,104.004,365.234,485.840
1706146202.922,8.789,27.344,83.984,232.422,-900.879
1706146202.926,40.039,5.371,-44.434,-268.555,-193.359
1706146202.930,42.969,3.906,-47.852,-261.230,-1000.000
1706146202.933,22.949,24.902,64.453,232.910,-14.160
1706146202.937,5.371,31.738,112.793,334.473,-775.391
1706146202.941,22.949,15.137,10.742,-157.715,201.172
1706146202.945,45.898,0.977,-62.988,-343.262,-1000.000
1706146202.949,14.160,14.160,49.316,137.695,-312.988
1706146202.951,-3.418,30.762,131.348,410.156,-833.496
1706146202.955,17.090,15.625,33.203,-33.691,485.840
1706146202.959,43.457,-5.859,-70.312,-372.559,-1000.000
1706146202.963,24.414,9.766,27.344,3.418,-646.484
1706146202.967,0.000,29.785,124.512,395.020,862.793
1706146202.971,17.090,20.996,53.223,102.051,869.629
1706146202.975,56.641,7.812,-71.777,-340.820,-598.633
1706146202.978,50.293,18.066,-21.484,-120.117,-1000.000
1706146202.982,20.508,36.621,110.352,348.145,341.309
1706146202.986,11.230,34.668,110.352,259.277,-837.891
1706146202.990,43.945,16.602,-20.508,-225.586,-49.805
1706146202.994,53.223,15.137,-41.016,-264.160,-1000.000
1706146202.997,20.996,32.715,82.031,232.422,-88.379
1706146203.001,10.254,39.062,130.371,388.184,-772.949
1706146203.005,34.180,17.090,13.672,-107.422,260.742
1706146203.009,55.664,4.395,-58.105,-350.586,-1000.000
1706146203.013,30.273,25.391,50.293,118.164,-408.203
1706146203.017,2.441,33.203,125.488,415.527,-896.484
1706146203.021,25.879,16.602,24.902,-21.484,566.895
1706146203.024,49.805,2.930,-81.543,-395.020,-954.102
1706146203.028,22.461,14.160,19.043,-47.363,-769.043
1706146203.032,0.488,24.902,115.234,378.906,703.125
1706146203.036,12.695,21.973,67.871,144.043,969.727
1706146203.040,36.621,9.277,-49.805,-324.219,-444.336
1706146203.042,31.738,13.184,-21.973,-192.871,-1000.000
1706146203.046,15.137,31.738,94.238,293.457,190.918
1706146203.050,1.465,28.320,111.328,293.457,-800.293
1706146203.054,33.691,9.766,-10.742,-203.125,61.035
1706146203.058,39.551,4.395,-57.129,-317.383,-1000.000
1706146203.062,8.789,20.508,55.664,166.992,-191.406
1706146203.066,-3.906,31.738,115.723,375.977,-788.574
1706146203.069,10.254,17.578,22.461,-93.750,343.750
1706146203.073,29.785,2.930,-65.918,-374.512,-1000.000
1706146203.077,3.906,20.508,38.574,56.641,-485.840
1706146203.081,-12.695,34.180,131.836,394.531,-962.891
1706146203.085,17.090,22.461,43.945,24.414,683.594
1706146203.101,54.199,12.695,-73.242,-368.164,-833.008
1706146203.105,46.875,26.367,0.000,-67.383,-861.328
1706146203.109,22.461,37.598,117.676,369.629,570.312
1706146203.113,0.488,27.344,97.656,173.340,-929.199
1706146203.117,22.461,6.348,-26.855,-304.688,-256.348
1706146203.121,34.180,10.742,-33.691,-232.422,-1000.000
1706146203.125,-5.371,30.273,80.566,240.723,53.711
1706146203.128,-22.949,37.109,125.488,298.828,-780.273
1706146203.132,10.742,21.973,0.000,-184.570,142.090
1706146203.136,24.902,6.836,-60.059,-352.051,-1000.000
1706146203.140,0.000,24.902,62.500,131.836,-264.160
1706146203.144,-10.742,35.156,129.883,389.160,-810.547
1706146203.146,18.555,17.578,13.672,-64.941,423.340
1706146203.150,41.992,5.859,-83.008,-375.488,-1000.000
1706146203.154,20.508,23.926,26.855,26.367,-594.727
1706146203.158,0.000,36.133,119.141,405.273,919.922
1706146203.162,9.277,17.578,46.387,69.824,798.828
1706146203.166,36.133,-1.465,-71.777,-367.676,-693.848
1706146203.170,24.902,10.254,-10.742,-133.789,-957.520
1706146203.173,-3.418,30.762,103.027,330.566,419.922
1706146203.177,-4.883,26.367,94.727,223.145,-868.652
1706146203.181,26.855,6.348,-28.320,-273.438,-125.000
1706146203.185,32.227,5.371,-37.109,-273.926,-1000.000
1706146203.189,9.277,21.484,83.984,218.262,-42.969
1706146203.191,0.977,23.438,117.676,337.402,-773.438
1706146203.195,25.879,7.812,0.488,-145.508,218.750
1706146203.199,41.992,3.418,-61.523,-347.168,-1000.000
1706146203.203,18.555,21.973,55.176,123.535,-336.914
1706146203.207,5.859,33.691,134.766,415.527,-845.215
1706146203.211,30.762,18.066,28.320,-19.043,501.953
1706146203.215,56.152,2.441,-80.078,-375.977,-1000.000
1706146203.218,35.645,19.043,14.648,4.395,-704.102
1706146203.222,11.230,32.715,106.934,399.414,792.480
1706146203.226,13.672,21.484,55.664,108.398,910.645
1706146203.230,40.527,2.441,-52.734,-329.102,-537.598
1706146203.234,37.109,9.277,-15.625,-148.438,-1000.000
1706146203.236,10.742,28.320,98.145,323.730,245.605
1706146203.240,7.324,29.785,102.539,265.137,-823.242
1706146203.244,38.086,8.301,-23.438,-235.840,-5.371
1706146203.248,45.410,1.953,-59.570,-309.082,-1000.000
1706146203.252,13.672,19.531,63.477,189.453,-135.254
1706146203.256,-2.930,29.785,125.000,391.113,-779.297
1706146203.260,32.715,19.531,9.277,-90.820,292.969
1706146203.263,51.758,6.836,-75.684,-366.211,-1000.000
1706146203.267,15.625,18.066,37.109,80.566,-451.172
1706146203.271,-1.953,27.832,136.719,416.504,-930.176
1706146203.275,20.996,16.602,48.828,9.766,616.211
1706146203.279,48.340,-0.488,-62.500,-371.094,-904.785
1706146203.282,36.621,7.324,19.043,-30.762,-818.359
1706146203.286,9.277,24.902,120.117,397.949,634.766
1706146203.290,12.695,22.949,78.125,174.316,-982.422
1706146203.294,51.270,6.348,-49.316,-311.523,-361.328
1706146203.298,45.410,9.766,-25.879,-206.543,-1000.000
1706146203.302,20.508,25.391,88.867,281.250,122.559
1706146203.306,12.695,26.367,107.422,303.711,-796.875
1706146203.309,41.992,12.207,-16.602,-179.199,77.637
1706146203.313,59.570,3.906,-61.035,-314.453,-1000.000
1706146203.317,35.156,18.555,68.359,179.688,-222.168
1706146203.321,18.555,31.738,132.324,416.992,-798.340
1706146203.325,43.945,15.137,21.484,-65.918,373.535
1706146203.326,74.707,4.395,-67.383,-371.582,-1000.000
1706146203.330,55.664,20.020,31.250,49.805,-548.340
1706146203.334,41.016,30.762,118.652,418.457,967.773
1706146203.338,38.574,19.531,46.387,60.059,746.582
1706146203.342,63.477,4.883,-64.453,-357.422,-760.742
1706146203.346,58.105,14.160,3.418,-86.914,-914.551
1706146203.350,2.441,27.832,112.305,369.629,501.465
1706146203.353,-15.137,24.414,91.309,221.191,-919.434
1706146203.357,20.508,9.766,-27.344,-271.484,-232.422
1706146203.361,32.227,8.301,-29.785,-230.469,-1000.000
1706146203.365,0.488,27.832,84.961,267.578,15.137
1706146203.369,-16.113,37.598,122.070,349.609,-776.367
1706146203.371,20.508,22.461,3.906,-145.508,182.617
1706146203.375,42.969,12.695,-61.035,-335.449,-1000.000
1706146203.379,10.254,31.738,61.523,129.883,-310.059
1706146203.383,-5.859,42.480,142.578,386.719,-830.078
1706146203.387,30.273,21.484,34.180,-54.199,455.078
1706146203.391,70.312,7.812,-69.824,-375.488,-1000.000
1706146203.395,43.457,24.414,25.391,12.207,-641.602
1706146203.398,14.648,37.109,125.000,401.855,864.746
1706146203.402,16.602,26.367,68.359,82.031,855.469
1706146203.406,50.781,7.812,-59.570,-365.234,-623.535
1706146203.410,49.316,14.160,-16.602,-147.461,-1000.000
1706146203.414,13.672,34.180,103.516,309.082,338.867
1706146203.416,11.719,33.691,98.145,228.516,-845.215
1706146203.420,46.875,16.602,-33.203,-249.023,-68.848
1706146203.424,56.641,12.207,-47.852,-283.691,-1000.000
1706146203.428,31.738,28.320,77.637,206.543,-80.078
1706146203.432,16.602,35.645,121.582,349.121,-774.902
1706146203.436,45.898,17.090,-0.977,-132.324,238.281
1706146203.440,73.242,3.906,-71.777,-355.469,-1000.000
1706146203.443,44.922,21.484,53.223,95.215,-391.602
1706146203.447,20.996,38.086,128.418,406.250,-886.230
1706146203.451,42.969,26.855,27.344,-11.719,557.129
1706146203.455,76.172,11.719,-67.871,-377.930,-965.820
1706146203.459,54.688,21.484,29.297,-23.926,-746.094
1706146203.477,28.809,36.621,128.418,381.348,735.352
1706146203.481,29.297,30.273,76.660,132.324,957.031
1706146203.485,58.105,12.207,-44.434,-315.918,-464.355
1706146203.489,71.289,17.578,-13.184,-174.316,-1000.000
1706146203.493,43.457,37.598,101.074,301.758,209.473
1706146203.497,25.879,40.039,109.375,291.992,-809.082
1706146203.501,50.781,17.090,-14.160,-199.707,31.250
1706146203.504,62.500,12.207,-47.363,-294.434,-1000.000
1706146203.508,35.156,32.227,71.777,196.289,-169.922
1706146203.512,10.742,38.086,123.047,388.672,-783.691
1706146203.516,30.762,22.949,16.113,-83.008,324.707
1706146203.520,59.082,14.648,-62.500,-359.375,-1000.000
1706146203.523,29.297,27.344,41.992,62.500,-478.516
1706146203.527,4.883,37.109,132.812,397.461,-959.473
1706146203.531,32.715,24.902,51.758,21.973,672.852
1706146203.535,59.082,7.324,-62.500,-353.516,-841.797
1706146203.539,36.133,20.996,9.277,-41.504,-864.258
1706146203.543,13.184,39.062,108.887,381.836,572.266
1706146203.547,14.160,29.297,80.566,191.895,-952.148
1706146203.550,51.270,8.301,-35.156,-274.902,-301.270
1706146203.554,49.805,3.418,-21.484,-198.242,-1000.000
1706146203.558,5.371,16.602,104.004,286.621,69.336
1706146203.562,-9.277,28.320,134.766,319.824,-784.180
1706146203.566,15.625,11.719,6.836,-189.941,127.441
1706146203.581,31.738,1.465,-48.340,-337.402,-1000.000
1706146203.585,10.742,24.902,66.406,138.672,-243.652
1706146203.589,-9.766,39.062,133.789,367.676,-801.758
1706146203.593,4.395,18.066,24.902,-86.426,404.785
1706146203.597,18.555,0.488,-78.613,-404.785,-1000.000
1706146203.601,-11.230,14.160,26.855,1.953,-580.566
1706146203.605,-31.738,31.250,129.883,381.836,931.152
1706146203.608,-2.930,21.973,61.035,34.180,793.457
1706146203.612,40.527,2.930,-69.336,-378.906,-698.242
1706146203.616,19.531,13.184,-12.207,-119.141,-949.219
1706146203.620,-17.578,31.250,111.328,324.707,446.289
1706146203.624,-7.324,22.461,92.285,196.289,-884.766
1706146203.611,35.645,3.418,-37.109,-284.668,-160.645
1706146203.615,50.293,5.859,-42.480,-277.832,-1000.000
1706146203.619,35.156,26.855,74.219,209.961,-26.367
1706146203.623,7.324,28.809,111.328,325.684,-772.461
1706146203.627,14.160,4.883,-0.977,-155.273,212.402
1706146203.631,32.227,-2.930,-63.965,-350.586,-1000.000
1706146203.635,-12.695,18.555,47.363,114.746,-335.449
1706146203.638,-27.344,29.297,121.094,415.527,-844.238
1706146203.642,10.254,13.184,35.156,-10.254,487.305
1706146203.646,20.508,-3.906,-57.129,-381.836,-1000.000
1706146203.650,-5.859,6.348,37.109,-7.812,-689.453
1706146203.654,-28.809,14.648,128.906,388.672,803.223
1706146203.656,-27.832,2.930,66.895,88.867,897.949
1706146203.660,-11.719,-13.672,-38.574,-366.699,-552.734
1706146203.664,-10.254,-13.672,2.930,-179.199,-1000.000
1706146203.668,-29.785,-1.465,113.770,286.133,264.160
1706146203.672,-41.504,0.000,114.258,222.656,-833.008
1706146203.676,-12.695,-17.090,-8.789,-260.742,-33.203
1706146203.680,6.836,-20.508,-34.668,-333.008,-1000.000
1706146203.683,0.488,-1.953,69.824,145.996,-125.000
1706146203.687,-1.953,12.695,129.395,330.566,-779.297
1706146203.691,20.996,-0.977,28.809,-142.090,283.691
1706146203.695,38.574,-10.742,-54.199,-374.023,-1000.000
1706146203.699,20.508,9.277,59.082,79.590,-431.641
1706146203.701,8.301,21.973,142.578,391.113,-915.039
1706146203.705,21.973,10.742,41.504,-10.742,607.910
1706146203.709,44.922,-0.488,-67.383,-382.812,-911.133
1706146203.713,17.090,9.766,17.578,-54.688,-803.223
1706146203.717,-6.836,27.344,120.117,357.910,656.250
1706146203.721,-0.488,20.020,77.148,139.648,-995.117
1706146203.725,29.297,0.488,-48.340,-327.637,-380.371
1706146203.728,40.039,6.348,-25.391,-211.914,-1000.000
1706146203.732,12.207,25.879,102.539,288.086,128.418
1706146203.736,3.906,30.762,122.559,308.594,-797.363
1706146203.740,36.621,13.672,-1.465,-174.316,72.266
1706146203.744,54.688,6.348,-44.922,-287.598,-1000.000
1706146203.747,40.039,25.391,63.477,186.035,-205.078
1706146203.751,29.297,38.574,120.605,402.832,-791.992
1706146203.755,48.340,22.461,11.230,-53.223,355.469
1706146203.759,68.359,8.789,-70.801,-346.191,-1000.000
1706146203.763,48.828,21.484,36.621,76.660,-516.602
1706146203.767,20.996,30.762,125.488,422.363,-999.023
1706146203.771,26.855,20.020,44.434,43.457,721.191
1706146203.774,61.523,4.395,-65.918,-354.980,-788.574
1706146203.778,48.828,19.043,9.277,-66.406,-899.902
1706146203.782,17.090,38.086,108.398,377.441,518.555
1706146203.786,17.090,31.250,84.473,216.797,-916.016
1706146203.790,47.852,11.230,-32.715,-254.395,-228.027
1706146203.791,47.363,11.719,-32.715,-205.566,-1000.000
1706146203.795,20.020,22.949,75.684,273.926,25.879
1706146203.799,6.836,23.926,114.746,343.750,-776.367
1706146203.803,27.832,12.207,0.488,-151.855,169.434
1706146203.807,42.480,1.953,-69.824,-326.172,-1000.000
1706146203.811,20.020,17.090,38.086,149.414,-284.180
1706146203.815,5.859,32.227,112.305,408.691,-818.848
1706146203.818,16.113,20.508,27.832,-35.156,438.477
1706146203.822,45.898,8.789,-60.547,-365.234,-1000.000
1706146203.826,39.551,25.391,33.691,20.020,-630.859
1706146203.830,14.648,37.598,127.441,395.996,875.977
1706146203.834,10.254,27.832,62.012,73.242,837.891
1706146203.851,43.945,12.695,-59.082,-344.238,-639.160
1706146203.855,36.621,18.066,-17.578,-116.699,-1000.000
1706146203.859,0.000,35.645,94.238,329.102,349.609
1706146203.863,-4.395,37.598,91.797,234.863,-854.492
1706146203.867,29.785,15.137,-30.762,-234.375,-91.797
1706146203.871,37.109,7.324,-50.293,-251.465,-1000.000
1706146203.875,9.766,27.832,65.918,226.562,-73.242
1706146203.878,-5.371,35.645,118.652,380.371,-772.461
1706146203.882,21.973,17.578,1.953,-106.445,246.094
1706146203.886,46.387,4.883,-83.008,-360.840,-1000.000
1706146203.890,22.461,22.949,38.086,100.586,-364.258
1706146203.894,0.000,39.551,131.836,410.156,-863.281
1706146203.896,18.066,22.949,35.156,-20.996,535.645
1706146203.900,43.945,2.930,-70.312,-387.207,-984.863
1706146203.904,25.391,13.184,20.020,-16.113,-723.633
1706146203.908,13.184,29.785,119.629,388.184,768.555
1706146203.912,26.855,19.531,60.059,129.883,933.594
1706146203.916,44.434,0.488,-64.941,-314.453,-501.953
1706146203.920,43.945,6.348,-32.227,-166.992,-1000.000
1706146203.923,13.184,24.414,84.961,302.246,211.914
1706146203.927,-2.441,28.320,97.656,285.645,-817.383
1706146203.931,33.203,11.230,-16.602,-183.105,9.766
1706146203.935,44.434,6.348,-38.086,-269.531,-1000.000
1706146203.939,14.160,20.996,77.637,206.055,-152.832
1706146203.941,-3.418,25.391,126.953,385.254,-782.715
1706146203.945,23.438,11.230,16.113,-93.262,306.641
1706146203.949,44.922,-1.465,-62.012,-360.840,-1000.000
1706146203.953,20.020,14.648,40.039,77.637,-458.008
1706146203.957,-5.371,30.762,125.488,413.574,-939.941
1706146203.961,8.789,19.043,37.109,25.879,646.484
1706146203.965,32.227,4.883,-70.801,-354.004,-872.559
1706146203.968,19.043,18.066,13.672,-38.574,-832.031
1706146203.972,2.441,32.227,112.305,381.836,612.793
1706146203.976,3.906,29.297,82.520,175.781,-961.914
1706146203.980,37.109,14.160,-29.297,-291.504,-317.383
1706146203.984,38.086,9.277,-27.832,-220.215,-1000.000
1706146203.987,6.348,26.855,83.496,269.531,86.914
1706146203.991,-9.766,33.203,116.211,324.707,-785.156
1706146203.995,16.113,15.625,-5.859,-177.734,119.141
1706146203.999,30.762,8.789,-67.383,-326.660,-1000.000
1706146204.003,4.883,25.879,47.852,135.254,-246.582
1706146204.007,-15.137,33.203,118.652,367.188,-803.711
1706146204.011,7.812,16.113,16.602,-81.543,391.113
1706146204.014,40.527,5.859,-77.637,-381.348,-1000.000
1706146204.018,27.832,20.508,19.043,34.180,-561.035
1706146204.022,5.371,35.156,118.164,394.531,956.543
1706146204.026,19.531,22.461,47.363,58.105,767.578
1706146204.030,54.688,3.906,-62.500,-349.609,-732.422
1706146204.031,39.062,11.230,5.371,-98.633,-946.289
1706146204.035,4.883,24.902,116.211,355.469,456.055
1706146204.039,24.414,28.320,92.773,237.793,-902.344
1706146204.043,51.758,19.043,-39.551,-253.906,-201.660
1706146204.047,38.086,12.695,-41.504,-251.953,-1000.000
1706146204.051,6.836,28.809,73.730,229.492,-19.043
1706146204.055,-6.836,40.527,109.863,324.219,-775.879
1706146204.058,27.344,25.391,-11.719,-154.297,192.871
1706146204.062,39.062,18.555,-75.684,-349.121,-1000.000
1706146204.066,19.043,45.898,43.457,105.957,-316.406
1706146204.070,4.883,59.570,109.375,381.836,-834.961
1706146204.074,27.832,38.574,9.766,-37.598,479.492
1706146204.077,54.688,20.996,-79.590,-369.141,-1000.000
1706146204.081,24.414,33.203,15.137,13.184,-671.875
1706146204.085,0.488,43.457,109.863,399.414,830.078
1706146204.089,14.648,34.668,50.781,91.309,879.883
1706146204.093,48.340,20.020,-70.801,-343.750,-583.008
1706146204.097,42.480,26.367,-31.250,-150.391,-1000.000
1706146204.101,12.695,43.457,79.590,311.523,306.641
1706146204.104,14.648,41.504,74.219,241.699,-842.285
1706146204.108,42.969,21.973,-37.598,-238.770,-48.828
1706146204.112,46.387,15.137,-52.246,-283.691,-1000.000
1706146204.116,21.484,31.250,65.918,190.918,-116.699
1706146204.120,6.836,39.551,117.188,359.375,-777.832
1706146204.121,33.691,23.438,5.859,-110.352,270.020
1706146204.125,50.781,12.695,-70.801,-350.586,-1000.000
1706146204.129,26.367,33.203,38.574,103.027,-411.621
1706146204.133,12.207,49.805,125.977,419.434,-901.855
1706146204.137,25.879,33.691,35.645,16.113,587.402
1706146204.141,51.270,13.672,-79.590,-358.398,-927.734
1706146204.145,32.227,20.996,-1.953,-33.691,-797.363
1706146204.148,10.742,40.527,109.863,370.605,664.551
1706146204.152,12.695,38.574,69.824,129.883,998.047
1706146204.156,37.109,20.020,-62.012,-323.730,-412.598
1706146204.160,36.133,25.879,-34.668,-195.312,-1000.000
1706146204.164,8.789,44.922,87.891,273.926,190.430
1706146204.181,4.395,48.340,105.469,273.926,-799.316
1706146204.185,43.457,29.785,-17.090,-202.148,64.453
1706146204.189,57.129,18.066,-61.523,-306.152,-1000.000
1706146204.193,20.020,32.227,62.500,174.805,-191.895
1706146204.197,6.836,42.480,120.605,382.324,-788.086
1706146204.201,30.762,25.879,-3.906,-73.242,342.285
1706146204.205,40.527,13.184,-81.543,-354.980,-1000.000
1706146204.208,17.090,28.809,39.062,61.035,-513.184
1706146204.212,-4.395,39.551,126.465,411.621,-991.699
1706146204.216,7.812,25.391,38.574,37.598,701.172
1706146204.220,44.922,11.230,-76.172,-370.117,-817.383
1706146204.224,35.156,22.461,0.000,-78.125,-876.465
1706146204.226,3.906,33.691,105.957,363.281,554.688
1706146204.230,11.230,32.227,77.148,188.477,-933.105
1706146204.234,44.434,17.090,-41.992,-289.062,-261.719
1706146204.238,38.574,14.648,-29.785,-232.910,-1000.000
1706146204.242,14.648,34.668,84.961,252.930,48.340
1706146204.246,9.277,41.992,110.840,322.754,-779.297
1706146204.250,32.715,25.879,-8.301,-159.668,149.902
1706146204.253,49.316,20.020,-62.500,-326.172,-1000.000
1706146204.257,29.297,36.621,51.758,149.414,-277.344
1706146204.261,6.348,45.410,117.676,404.785,-814.453
1706146204.265,25.391,33.203,25.391,-42.480,417.969
1706146204.269,57.617,24.414,-62.500,-357.422,-1000.000
1706146204.272,34.180,31.738,27.832,34.180,-599.609
1706146204.276,1.953,37.109,121.094,399.902,908.691
1706146204.280,12.207,31.250,52.734,77.148,814.453
1706146204.284,46.387,17.090,-66.895,-341.797,-668.945
1706146204.288,34.180,21.973,-12.207,-115.234,-991.211
1706146204.292,6.836,35.645,98.633,336.426,365.723
1706146204.296,3.418,35.156,98.633,238.770,-859.375
1706146204.299,29.297,13.672,-19.531,-231.934,-95.703
1706146204.303,38.086,7.812,-46.387,-249.512,-1000.000
1706146204.307,18.066,27.832,68.359,221.191,-73.730
1706146204.311,-2.930,37.109,125.000,342.285,-775.391
1706146204.315,17.090,16.602,5.371,-136.719,227.051
1706146204.316,34.180,5.371,-73.730,-351.562,-1000.000
1706146204.320,16.113,24.902,37.109,103.516,-347.656
1706146204.324,2.930,35.645,122.070,394.531,-854.004
1706146204.328,12.695,17.578,26.855,-30.762,511.230
1706146204.332,30.273,1.465,-80.078,-381.348,-1000.000
1706146204.336,4.883,12.207,12.695,-7.324,-721.680
1706146204.340,-13.184,27.832,115.234,393.066,765.625
1706146204.343,0.488,22.461,59.570,115.234,929.688
1706146204.347,39.062,5.371,-68.359,-324.707,-512.695
1706146204.351,30.273,12.207,-21.973,-152.344,-1000.000
1706146204.355,-1.953,32.227,108.887,317.871,247.070
1706146204.359,1.465,31.250,107.422,277.344,-820.312
1706146204.361,31.738,14.160,-18.066,-214.355,-1.465
1706146204.365,40.527,5.859,-46.387,-281.738,-1000.000
1706146204.369,18.555,20.508,75.684,193.848,-144.043
1706146204.373,3.418,32.227,126.953,360.840,-780.762
1706146204.377,32.715,17.578,7.812,-106.934,302.246
1706146204.381,53.711,5.371,-71.289,-348.633,-1000.000
1706146204.385,24.414,24.414,40.527,93.750,-450.195
1706146204.388,3.906,38.574,124.512,405.273,-931.152
1706146204.392,27.344,20.996,35.156,1.953,629.395
1706146204.396,61.523,4.395,-64.941,-380.859,-889.160
1706146204.400,30.762,16.113,15.137,-56.152,-826.660
1706146204.404,6.348,32.715,108.398,361.328,623.535
1706146204.408,7.324,32.715,70.312,153.320,-973.633
1706146204.412,24.414,16.602,-52.246,-302.734,-342.285
1706146204.416,31.738,17.090,-37.109,-207.031,-1000.000
1706146204.420,12.207,35.645,83.496,272.461,104.980
1706146204.424,0.488,38.574,107.422,309.570,-791.016
1706146204.428,23.926,20.996,-10.742,-183.105,103.027
1706146204.432,35.156,14.160,-59.570,-327.637,-1000.000
1706146204.435,9.766,28.809,47.363,148.926,-245.605
1706146204.439,-6.836,40.039,120.605,371.582,-802.734
1706146204.443,19.043,26.367,20.996,-85.938,375.000
1706146204.447,41.016,13.672,-71.777,-366.211,-1000.000
1706146204.451,19.531,24.902,30.762,49.805,-544.922
1706146204.452,-6.836,34.180,123.535,394.043,972.168
1706146204.456,10.254,26.855,52.734,42.969,741.211
1706146204.460,46.387,9.766,-63.477,-356.445,-759.277
1706146204.464,29.785,14.648,-5.371,-87.402,-930.176
1706146204.468,4.395,30.273,104.980,350.586,471.680
1706146204.472,5.371,25.391,85.449,207.520,-901.855
1706146204.476,29.297,6.836,-40.527,-262.207,-202.637
1706146204.479,22.949,6.348,-41.504,-239.258,-1000.000
1706146204.483,-3.418,21.973,87.402,243.164,0.488
1706146204.487,-13.184,27.344,125.488,335.938,-774.902
1706146204.491,20.020,14.648,5.859,-152.832,183.105
1706146204.495,46.387,3.906,-56.152,-343.262,-1000.000
1706146204.496,19.531,17.090,59.082,126.953,-308.594
1706146204.500,-10.254,26.855,129.395,387.695,-831.055
1706146204.504,15.137,15.625,27.832,-48.340,467.285
1706146204.508,48.340,6.836,-65.918,-368.164,-1000.000
1706146204.512,21.484,20.020,26.367,1.465,-646.973
1706146204.516,7.812,31.738,118.652,387.695,862.793
1706146204.520,14.648,23.926,48.828,90.820,855.469
1706146204.523,26.855,8.789,-71.777,-347.168,-621.094
1706146204.527,12.695,14.648,-10.254,-136.719,-1000.000
1706146204.531,1.953,29.297,104.492,333.008,333.984
1706146204.535,9.766,36.133,92.773,254.883,-845.215
1706146204.539,27.832,24.902,-31.738,-233.887,-65.430
1706146204.542,35.156,20.996,-52.734,-275.879,-1000.000
1706146204.546,10.254,39.062,58.105,209.473,-103.516
1706146204.550,-1.465,46.875,106.934,358.398,-776.367
1706146204.554,28.809,29.297,-0.488,-127.930,259.277
1706146204.558,37.109,20.996,-72.266,-355.469,-1000.000
1706146204.562,10.742,41.016,35.645,100.098,-400.391
1706146204.566,-2.930,50.781,110.840,392.090,-893.555
1706146204.569,21.973,35.156,25.391,-31.738,572.266
1706146204.573,51.758,19.043,-73.242,-398.438,-950.684
1706146204.577,24.902,30.273,6.348,-47.852,-757.324
1706146204.581,0.488,44.434,108.398,371.582,722.656
1706146204.585,9.766,40.039,64.941,122.070,973.633
1706146204.601,37.109,23.438,-60.547,-324.219,-442.383
1706146204.605,35.645,23.438,-33.203,-173.340,-1000.000
1706146204.609,10.742,39.062,83.984,301.758,197.754
1706146204.613,3.418,42.969,95.215,281.250,-804.199
1706146204.617,22.461,26.855,-27.344,-205.566,49.805
1706146204.621,37.109,17.578,-60.547,-306.641,-1000.000
1706146204.625,10.742,33.203,65.918,174.316,-187.012
1706146204.628,-12.207,44.434,137.695,380.859,-787.598
1706146204.632,17.578,28.320,26.367,-91.309,339.844
1706146204.636,51.758,14.160,-74.707,-358.887,-1000.000
1706146204.640,24.414,31.250,38.086,73.242,-480.469
1706146204.644,1.465,45.898,138.672,410.645,-961.914
1706146204.647,26.855,28.809,48.828,53.711,679.688
1706146204.651,52.246,15.137,-67.383,-346.680,-834.473
1706146204.655,32.227,33.691,6.836,-74.707,-858.398
1706146204.659,3.906,50.781,111.328,350.586,579.102
1706146204.663,8.789,39.062,74.219,169.922,-940.918
1706146204.667,47.363,18.066,-51.270,-282.227,-279.785
1706146204.671,41.992,19.043,-39.062,-203.613,-1000.000
1706146204.674,8.301,37.598,84.473,276.367,64.941
1706146204.678,3.906,41.992,107.910,334.961,-783.203
1706146204.682,32.227,24.414,-12.207,-144.531,123.535
1706146204.686,40.039,12.695,-50.293,-308.105,-1000.000
1706146204.690,18.555,19.531,67.383,158.203,-261.230
1706146204.691,2.930,30.273,135.742,399.902,-811.035
1706146204.695,21.484,20.508,31.250,-52.734,417.480
1706146204.699,50.781,6.348,-62.012,-358.398,-1000.000
1706146204.703,33.203,20.020,37.109,40.527,-592.285
1706146204.707,10.254,27.832,124.023,408.203,920.410
1706146204.711,16.602,16.602,49.316,71.289,797.852
1706146204.715,49.316,8.301,-68.359,-350.586,-692.383
1706146204.718,42.969,19.043,-11.230,-101.562,-974.121
1706146204.722,15.625,32.715,93.262,342.285,404.785
1706146204.726,10.254,34.668,80.078,217.285,-879.883
1706146204.730,31.738,15.625,-32.715,-260.254,-143.066
1706146204.734,42.480,11.719,-45.898,-259.277,-1000.000
1706146204.737,20.020,33.691,68.359,221.680,-56.641
1706146204.741,2.441,40.039,114.746,331.543,-775.879
1706146204.745,26.855,22.949,-3.418,-140.137,212.891
1706146204.749,44.922,13.184,-73.730,-338.867,-1000.000
1706146204.753,16.602,30.273,41.504,120.117,-334.961
1706146204.757,-2.930,43.945,125.000,394.531,-843.750
1706146204.761,22.461,25.391,28.809,-34.668,495.605
1706146204.764,53.711,10.254,-74.219,-368.164,-1000.000
1706146204.768,34.668,23.926,18.066,1.465,-708.984
1706146204.772,13.184,40.527,121.094,400.879,781.250
1706146204.776,25.391,38.574,61.523,121.094,913.086
1706146204.780,54.688,23.926,-60.547,-316.406,-535.645
1706146204.781,46.387,24.414,-15.137,-132.324,-1000.000
1706146204.785,11.230,34.668,99.609,320.801,267.578
1706146204.789,0.488,33.203,97.656,259.766,-819.336
1706146204.793,33.203,15.625,-26.367,-237.793,-0.488
1706146204.797,35.645,11.230,-50.781,-312.012,-1000.000
1706146204.801,6.348,28.809,70.312,176.758,-127.930
1706146204.805,-4.883,38.574,130.371,351.562,-777.344
1706146204.808,21.973,16.602,8.789,-129.395,289.551
1706146204.812,33.203,1.953,-75.195,-387.207,-1000.000
1706146204.816,-3.418,26.367,46.387,60.547,-430.664
1706146204.820,-2.930,46.387,126.465,396.484,-920.898
1706146204.824,33.203,29.297,33.203,7.324,625.977
1706146204.826,56.641,8.301,-73.242,-365.723,-892.578
1706146204.830,30.762,23.926,11.230,-45.898,-805.664
1706146204.834,4.395,41.992,106.445,352.051,657.227
1706146204.838,20.508,35.156,62.012,139.648,-983.398
1706146204.842,46.387,17.090,-49.316,-299.805,-364.746
1706146204.846,40.527,11.719,-25.879,-194.336,-1000.000
1706146204.850,14.648,21.484,87.891,275.391,134.766
1706146204.853,-1.465,28.809,111.328,289.062,-794.434
1706146204.857,23.438,17.578,1.465,-193.359,84.961
1706146204.861,39.551,9.277,-45.898,-312.500,-1000.000
1706146204.865,0.000,18.066,58.594,154.785,-223.145
1706146204.869,-23.926,25.879,126.465,367.676,-799.316
1706146204.871,7.324,12.695,27.832,-91.309,375.000
1706146204.875,29.785,-1.953,-69.824,-385.254,-1000.000
1706146204.879,5.859,10.254,31.250,38.574,-546.875
1706146204.883,-17.578,41.016,132.812,389.160,977.051
1706146204.887,-2.441,31.738,54.688,19.531,730.469
1706146204.891,11.230,3.906,-64.453,-397.949,-778.320
1706146204.895,-8.301,19.043,1.953,-126.953,-916.504
1706146204.898,-36.621,33.691,98.145,304.199,490.234
1706146204.902,-31.738,48.828,81.055,153.320,-913.086
1706146204.906,-7.812,25.391,-35.156,-317.383,-218.750
1706146204.910,-46.875,9.277,-39.551,-311.035,-1000.000
1706146204.914,-103.027,39.062,75.684,143.555,10.742
1706146204.917,-137.207,52.246,120.117,200.684,-778.320
1706146204.921,-135.742,32.227,2.930,-317.871,166.992
1706146204.925,-134.277,20.020,-62.500,-525.391,-1000.000
1706146204.929,-166.016,40.527,59.082,-64.941,-284.668
1706146204.933,-192.871,41.992,134.277,196.777,-819.824
1706146204.937,-192.383,17.578,28.809,-251.465,449.219
1706146204.941,-176.270,8.301,-68.359,-597.168,-1000.000
1706146204.944,-189.941,23.926,36.133,-204.590,-638.184
1706146204.948,-199.219,38.086,132.812,188.965,869.629
1706146204.952,-180.664,29.297,68.359,-112.305,828.613
1706146204.956,-144.043,9.277,-49.805,-515.137,-651.855
1706146204.960,-147.949,16.113,-0.488,-292.969,-995.117
1706146204.977,-169.434,28.809,113.770,165.527,355.469
1706146204.981,-159.180,23.926,104.004,90.332,-842.773
1706146204.985,-104.492,6.836,-17.578,-366.211,-66.895
1706146204.989,-82.520,5.371,-15.625,-382.812,-1000.000
1706146204.993,-112.793,18.066,110.352,100.586,-75.195
1706146204.997,-116.211,17.090,147.949,269.531,-773.438
1706146205.001,-67.871,-1.465,30.273,-192.383,256.836
1706146205.004,-41.992,-12.695,-42.480,-420.898,-1000.000
1706146205.008,-59.570,-0.977,62.500,41.016,-378.906
1706146205.012,-62.500,8.789,136.719,353.516,-872.559
1706146205.016,-38.574,-3.418,44.922,-48.828,558.105
1706146205.020,-3.906,-19.043,-65.430,-392.090,-963.379
1706146205.021,0.000,-5.859,15.137,-32.715,-739.258
1706146205.025,-20.020,8.789,111.328,371.094,741.211
1706146205.029,-13.672,0.000,63.965,120.605,962.402
1706146205.033,35.156,-14.648,-52.734,-316.895,-453.613
1706146205.037,54.688,-3.906,-27.344,-169.922,-1000.000
1706146205.041,38.086,20.020,88.867,311.523,206.543
1706146205.045,25.391,20.996,98.633,309.082,-810.059
1706146205.048,50.781,-1.953,-26.855,-169.922,31.738
1706146205.052,66.406,-9.277,-65.918,-261.719,-1000.000
1706146205.056,45.898,8.301,40.039,206.543,-181.641
1706146205.060,33.203,22.461,113.281,401.367,-787.109
1706146205.064,56.152,5.371,12.207,-57.129,326.172
1706146205.066,93.262,-3.418,-76.660,-316.406,-1000.000
1706146205.070,82.520,18.555,36.621,122.070,-464.355
1706146205.074,58.105,34.180,124.023,464.844,-951.660
1706146205.078,67.383,21.484,32.715,68.359,683.594
1706146205.082,92.285,0.977,-83.984,-324.707,-828.125
1706146205.086,82.520,3.906,-13.184,-9.766,-858.398
1706146205.090,63.965,25.879,92.285,418.457,593.262
1706146205.093,71.777,26.855,60.059,238.770,-960.449
1706146205.097,112.793,5.859,-60.547,-224.121,-318.359
1706146205.101,117.188,12.207,-37.109,-164.062,-1000.000
1706146205.105,85.449,35.156,87.891,323.242,75.195
1706146205.109,67.383,34.668,110.840,375.977,-784.668
1706146205.112,91.309,20.508,-4.883,-118.652,130.371
1706146205.116,108.398,13.672,-56.641,-274.902,-1000.000
1706146205.120,77.148,23.926,46.387,203.125,-259.277
1706146205.124,66.406,37.598,111.816,455.566,-806.641
1706146205.128,95.215,24.902,12.207,1.465,402.344
1706146205.132,107.422,8.301,-80.078,-315.430,-1000.000
1706146205.136,78.125,20.996,21.484,89.355,-583.008
1706146205.139,64.941,31.250,108.887,461.914,930.176
1706146205.143,76.660,25.391,40.527,115.234,772.949
1706146205.147,92.773,15.625,-60.547,-301.270,-717.285
1706146205.151,96.680,20.996,-1.953,-43.457,-969.238
1706146205.155,76.660,37.109,99.121,398.926,408.203
1706146205.156,64.941,36.621,84.961,268.066,-882.812
1706146205.160,88.867,20.508,-37.109,-202.637,-157.227
1706146205.164,102.539,19.043,-48.828,-191.895,-1000.000
1706146205.168,87.402,41.992,64.453,282.715,-29.785
1706146205.172,67.383,51.270,105.469,385.254,-774.902
1706146205.176,101.074,28.809,-17.578,-92.773,206.543
1706146205.180,115.723,16.113,-81.055,-292.969,-1000.000
1706146205.183,72.754,30.273,27.832,181.641,-346.680
1706146205.187,56.641,38.574,106.934,452.637,-854.492
1706146205.191,69.824,20.508,24.414,0.488,507.324
1706146205.195,86.914,-1.953,-74.707,-329.102,-1000.000
1706146205.199,68.848,11.230,18.555,45.410,-681.152
1706146205.202,47.852,31.738,119.629,423.828,821.777
1706146205.206,59.570,28.809,63.965,127.441,895.508
1706146205.210,93.262,15.625,-57.129,-304.688,-562.500
1706146205.214,93.262,20.996,-15.137,-111.328,-1000.000
1706146205.218,65.430,34.668,96.680,360.840,289.062
1706146205.222,61.035,29.297,89.355,314.453,-835.449
1706146205.226,89.355,1.953,-38.086,-172.852,-38.574
1706146205.229,83.496,-1.953,-62.500,-237.793,-1000.000
1706146205.233,52.246,25.391,70.312,238.281,-117.188
1706146205.237,32.227,31.250,130.859,404.297,-776.367
1706146205.241,50.293,4.883,3.906,-68.848,275.391
1706146205.245,80.078,3.418,-69.824,-319.336,-1000.000
1706146205.246,69.336,36.621,56.641,129.395,-410.156
1706146205.250,44.922,45.410,136.230,443.359,-902.832
1706146205.254,54.688,27.344,44.434,31.738,602.051
1706146205.258,76.172,6.836,-64.453,-352.539,-915.039
1706146205.262,62.012,19.043,13.184,-20.996,-787.598
1706146205.266,42.969,36.133,111.328,395.508,686.523
1706146205.270,36.621,28.320,66.895,161.621,989.258
1706146205.273,61.035,12.695,-49.805,-291.504,-416.016
1706146205.277,46.387,13.184,-19.043,-169.922,-1000.000
1706146205.281,20.996,26.855,93.262,307.129,162.598
1706146205.285,22.461,28.320,110.840,325.195,-798.828
1706146205.289,41.504,3.906,-3.418,-172.852,69.824
1706146205.291,57.129,-6.348,-50.781,-314.453,-1000.000
1706146205.295,28.320,11.230,56.641,156.250,-203.613
1706146205.299,6.836,24.414,122.070,371.582,-791.504
1706146205.303,36.133,17.090,21.484,-75.684,360.840
1706146205.307,67.871,10.254,-71.289,-346.680,-1000.000
1706146205.311,54.199,22.949,22.461,79.590,-517.090
1706146205.315,32.715,34.180,115.234,430.664,-997.559
1706146205.318,49.316,21.484,51.270,65.430,714.355
1706146205.322,83.008,5.859,-57.617,-341.309,-791.016
1706146205.326,62.988,14.648,-2.441,-61.035,-911.621
1706146205.330,29.297,32.715,100.098,378.418,506.836
1706146205.334,21.484,29.297,88.379,209.473,-925.781
1706146205.351,48.340,5.859,-33.203,-269.531,-254.883
1706146205.355,52.246,4.883,-33.691,-216.309,-1000.000
1706146205.359,31.250,21.973,84.961,262.695,42.969
1706146205.363,26.367,30.762,119.629,333.008,-778.320
1706146205.367,46.875,18.066,-7.324,-141.602,165.039
1706146205.371,61.035,6.836,-73.242,-302.246,-1000.000
1706146205.375,35.645,21.973,47.363,159.180,-281.250
1706146205.378,7.324,37.109,125.000,398.926,-817.383
1706146205.382,21.484,17.578,19.531,-50.293,452.148
1706146205.386,45.898,-7.812,-81.055,-369.141,-1000.000
1706146205.390,25.391,7.812,23.438,23.926,-611.816
1706146205.394,9.277,33.203,118.164,408.691,900.391
1706146205.396,21.973,26.855,47.852,106.934,833.496
1706146205.400,50.781,10.742,-64.941,-344.238,-645.020
1706146205.404,39.551,13.672,-9.766,-141.113,-991.699
1706146205.408,16.602,30.273,98.145,320.312,377.441
1706146205.412,14.160,28.320,78.613,230.469,-859.863
1706146205.416,37.109,7.812,-44.434,-237.305,-105.957
1706146205.420,48.340,12.207,-39.551,-258.301,-1000.000
1706146205.423,20.020,26.367,82.520,219.727,-64.941
1706146205.427,0.977,21.973,111.816,358.398,-774.902
1706146205.431,27.344,3.418,-2.441,-119.629,230.957
1706146205.435,53.223,0.000,-54.199,-334.961,-1000.000
1706146205.439,34.180,20.996,51.758,124.023,-365.723
1706146205.443,12.695,28.320,119.141,392.090,-869.141
1706146205.447,32.715,11.719,28.809,-35.156,546.875
1706146205.451,54.199,1.953,-68.848,-373.535,-973.633
1706146205.455,37.598,20.508,15.137,-18.066,-727.051
1706146205.459,20.020,30.273,105.957,384.277,761.230
1706146205.463,20.996,17.090,45.410,120.605,950.195
1706146205.467,65.918,13.672,-63.965,-301.270,-485.352
1706146205.470,75.195,18.555,-20.020,-121.094,-1000.000
1706146205.474,30.273,20.508,92.773,326.172,249.023
1706146205.478,-0.977,20.996,107.422,268.066,-810.547
1706146205.482,23.926,2.441,-0.977,-223.633,29.297
1706146205.486,33.691,-13.184,-39.062,-297.363,-1000.000
1706146205.487,0.977,7.812,76.172,181.152,-155.762
1706146205.491,-22.461,19.531,141.602,352.051,-780.273
