timestamps,TP9,AF7,AF8,TP10,Right AUX
1706146413.206,6.348,22.949,17.578,-52.734,-875.488
1706146413.210,29.785,34.668,52.734,164.062,1.953
1706146413.214,10.742,33.203,56.641,162.598,-967.285
1706146413.218,6.836,26.855,14.648,-61.035,119.629
1706146413.222,21.484,23.438,0.000,-116.699,-878.418
1706146413.226,34.180,30.762,40.039,96.191,-301.758
1706146413.230,15.625,38.574,58.594,197.266,953.125
1706146413.233,-8.789,27.832,22.461,-18.066,460.449
1706146413.237,-4.883,19.043,-0.977,-152.832,-702.637
1706146413.241,12.695,26.855,33.203,46.875,-563.965
1706146413.245,3.906,34.180,56.152,204.590,668.945
1706146413.249,-28.320,31.250,27.344,33.691,694.336
1706146413.252,-29.297,22.461,-2.930,-149.414,-453.125
1706146413.256,13.184,27.832,20.020,-11.230,-814.453
1706146413.260,48.828,36.133,51.270,191.406,250.000
1706146413.264,23.438,31.250,45.898,106.445,909.668
1706146413.268,-16.113,20.508,10.742,-107.910,-193.848
1706146413.272,16.602,18.066,11.719,-81.543,-859.863
1706146413.276,44.922,27.832,49.316,129.883,-20.020
1706146413.279,13.184,32.715,58.105,166.504,-982.422
1706146413.283,-25.879,20.996,20.020,-47.363,229.492
1706146413.287,-17.090,11.719,-0.977,-132.324,-819.336
1706146413.291,-4.395,20.508,38.086,81.543,-359.863
1706146413.295,-26.367,31.250,59.082,190.430,916.504
1706146413.296,-34.180,24.414,25.879,-20.996,525.391
1706146413.300,-13.672,11.719,0.000,-163.086,-658.203
1706146413.304,5.371,20.996,30.273,22.949,-606.445
1706146413.308,8.789,31.738,55.664,194.336,587.891
1706146413.312,-11.719,24.414,36.133,45.410,775.391
1706146413.316,-13.672,15.137,1.953,-145.508,-396.484
1706146413.320,13.184,16.602,14.160,-47.363,-877.441
1706146413.323,21.973,29.297,54.199,164.062,170.410
1706146413.327,0.000,33.691,53.223,125.977,-983.398
1706146413.331,-19.531,19.531,8.789,-97.656,-25.391
1706146413.335,-8.789,15.625,3.418,-107.422,-913.574
1706146413.339,-20.996,29.297,43.945,120.605,-164.062
1706146413.357,-33.691,33.203,59.082,178.223,-960.449
1706146413.361,-38.086,24.414,21.484,-48.340,356.445
1706146413.365,-29.297,18.555,-0.977,-139.160,-781.250
1706146413.369,1.465,24.414,34.668,66.895,-437.988
1706146413.373,9.277,33.203,57.617,193.359,843.750
1706146413.377,-15.625,23.438,20.508,-9.766,633.789
1706146413.381,-12.207,14.648,-11.719,-165.527,-557.129
1706146413.384,15.625,27.344,20.508,5.371,-716.797
1706146413.388,11.230,38.086,53.711,187.500,470.215
1706146413.392,-13.184,32.227,33.691,69.824,851.562
1706146413.396,-12.695,19.531,-0.977,-133.789,-301.270
1706146413.400,5.859,18.555,12.695,-68.359,-851.562
1706146413.401,7.324,31.250,46.875,143.066,132.812
1706146413.405,-4.395,34.668,43.945,133.789,-960.449
1706146413.409,-5.859,20.020,3.906,-83.496,56.152
1706146413.413,29.785,15.625,-4.395,-129.395,-902.344
1706146413.417,52.734,28.320,34.668,89.355,-225.586
1706146413.421,38.086,35.156,51.270,176.270,-995.117
1706146413.425,16.602,26.855,15.137,-47.363,377.930
1706146413.428,27.344,16.113,-6.348,-157.715,-775.879
1706146413.432,46.875,24.414,29.785,47.363,-494.629
1706146413.436,22.461,36.133,56.641,181.152,752.930
1706146413.440,-10.742,29.297,31.250,1.465,644.531
1706146413.444,0.000,16.602,-3.906,-159.668,-563.477
1706146413.446,48.340,23.438,14.648,-18.555,-839.844
1706146413.450,65.430,36.133,49.316,173.340,325.195
1706146413.454,24.414,33.691,39.551,84.961,910.645
1706146413.458,3.418,21.484,1.953,-130.371,-160.645
1706146413.462,21.484,15.625,8.301,-92.773,-878.418
1706146413.466,28.320,26.367,47.363,126.953,-42.480
1706146413.470,8.301,35.156,52.246,147.949,-960.938
1706146413.473,-14.160,21.973,15.137,-70.312,146.973
1706146413.477,11.719,13.672,2.930,-124.023,-835.449
1706146413.481,46.387,23.926,41.016,81.055,-274.414
1706146413.485,41.016,32.715,60.059,172.852,958.496
1706146413.489,21.973,28.320,19.043,-34.668,501.465
1706146413.492,25.391,18.066,-9.766,-168.457,-705.566
1706146413.496,37.598,26.855,25.879,36.133,-590.820
1706146413.500,3.906,39.551,56.641,189.941,669.434
1706146413.504,-41.504,35.156,31.250,15.137,741.699
1706146413.508,-36.621,24.902,-5.859,-167.480,-446.289
1706146413.512,-4.883,23.438,12.695,-45.410,-851.074
1706146413.516,6.836,32.227,46.875,152.832,230.469
1706146413.519,-13.672,29.785,43.457,81.055,951.172
1706146413.523,-33.203,15.625,6.348,-129.395,-125.000
1706146413.527,-4.883,18.066,7.324,-110.840,-943.359
1706146413.531,20.996,28.320,47.852,104.004,-126.465
1706146413.535,28.320,30.762,55.664,147.949,-948.242
1706146413.536,50.781,22.949,15.625,-65.918,255.859
1706146413.540,76.172,17.578,0.000,-151.367,-829.590
1706146413.544,86.426,29.297,37.598,53.223,-381.836
1706146413.548,59.570,36.133,58.105,177.246,898.926
1706146413.552,29.785,26.855,25.391,-10.742,580.078
1706146413.556,41.016,19.043,-4.395,-164.551,-655.762
1706146413.560,56.152,26.367,29.785,9.766,-659.180
1706146413.563,44.922,33.203,58.105,184.082,581.543
1706146413.567,5.859,28.320,36.133,42.480,753.418
1706146413.571,-9.766,23.438,3.906,-148.438,-400.391
1706146413.575,4.883,25.879,17.578,-55.176,-845.703
1706146413.579,6.836,32.715,51.270,154.297,164.551
1706146413.581,-5.371,36.621,45.410,118.164,996.582
1706146413.585,-28.809,29.785,4.883,-103.516,14.160
1706146413.589,-6.348,24.414,-1.465,-130.859,-853.516
1706146413.593,23.438,36.621,28.809,86.914,-167.480
1706146413.597,13.672,41.016,34.668,167.480,-969.238
1706146413.601,0.000,27.344,1.465,-43.945,363.281
1706146413.605,22.461,18.555,-13.672,-147.461,-756.836
1706146413.608,42.969,23.926,23.926,56.152,-481.934
1706146413.612,23.438,36.133,54.688,186.523,774.902
1706146413.616,-9.766,31.250,28.809,0.000,639.648
1706146413.620,-2.930,16.113,-5.859,-159.668,-597.656
1706146413.624,40.039,21.973,23.438,-1.465,-768.555
1706146413.626,73.730,31.250,58.594,179.688,447.754
1706146413.630,90.820,28.320,39.551,65.430,879.883
1706146413.634,149.902,13.184,4.395,-136.230,-246.582
1706146413.638,178.711,12.695,16.113,-79.590,-917.480
1706146413.642,135.254,29.785,52.246,142.578,36.133
1706146413.646,124.023,31.738,52.246,142.578,-977.539
1706146413.650,84.473,19.043,12.695,-94.238,73.242
1706146413.653,114.746,20.020,4.395,-132.812,-840.820
1706146413.657,134.766,33.203,45.410,97.656,-227.051
1706146413.661,114.258,34.180,61.523,184.082,984.375
1706146413.665,64.453,25.391,21.973,-33.203,434.082
1706146413.669,7.812,18.066,-1.953,-153.320,-739.258
1706146413.671,34.180,27.344,32.715,42.480,-568.359
1706146413.675,119.629,31.738,59.082,195.801,710.449
1706146413.679,174.316,26.855,32.227,19.043,687.988
1706146413.683,209.961,23.438,3.418,-157.715,-512.695
1706146413.687,181.152,29.785,27.832,-17.090,-749.512
1706146413.691,85.449,40.039,59.082,170.410,365.234
1706146413.695,41.504,38.574,45.410,83.984,902.344
1706146413.698,-14.648,28.809,8.301,-117.188,-187.012
1706146413.702,26.367,23.438,12.207,-86.426,-878.418
1706146413.706,145.508,31.250,45.898,123.535,-45.410
1706146413.710,61.523,34.180,52.734,144.043,-978.027
1706146413.714,-29.785,22.949,14.160,-80.566,206.543
1706146413.717,41.016,19.531,-1.465,-151.367,-893.066
1706146413.721,60.059,31.738,35.645,70.312,-392.578
1706146413.725,13.672,37.598,55.664,184.082,926.758
1706146413.729,5.859,26.855,24.902,-16.113,535.645
1706146413.733,29.297,20.508,-0.977,-155.273,-679.688
1706146413.737,20.508,27.832,31.738,24.414,-662.598
1706146413.741,77.637,37.109,62.988,193.359,612.305
1706146413.744,94.238,34.668,38.574,41.504,763.184
1706146413.748,99.121,20.996,0.000,-149.414,-429.199
1706146413.752,210.449,20.996,15.137,-38.086,-815.430
1706146413.756,228.027,32.227,52.734,167.480,264.160
1706146413.760,142.578,32.715,50.293,103.516,967.773
1706146413.777,77.148,20.508,9.766,-107.910,-107.910
1706146413.781,38.086,15.625,2.930,-88.867,-971.191
1706146413.785,30.273,28.320,41.504,121.582,-169.922
1706146413.789,31.250,33.203,53.223,164.062,-962.891
1706146413.793,59.570,21.484,16.602,-55.664,289.551
1706146413.797,88.379,15.625,-3.906,-148.438,-803.711
1706146413.801,40.039,25.391,33.203,58.594,-412.109
1706146413.804,9.766,31.738,59.082,183.594,860.352
1706146413.808,26.855,23.438,26.855,-8.301,567.871
1706146413.812,58.594,15.137,-1.953,-161.621,-619.141
1706146413.816,80.566,25.879,29.785,4.883,-693.359
1706146413.820,14.160,38.086,60.547,179.199,516.602
1706146413.821,-31.250,31.250,40.039,46.875,790.039
1706146413.825,11.230,18.555,2.441,-147.949,-424.805
1706146413.829,35.156,20.508,17.578,-51.758,-933.105
1706146413.833,58.594,31.738,52.734,154.785,116.699
1706146413.837,73.242,36.133,47.363,118.164,-992.676
1706146413.841,43.457,27.832,11.230,-92.285,8.789
1706146413.845,65.430,25.879,4.883,-110.352,-923.340
1706146413.848,28.809,36.133,44.922,102.051,-215.332
1706146413.852,-47.852,42.969,56.152,174.316,-981.934
1706146413.856,-84.473,33.203,14.160,-44.922,359.375
1706146413.860,-63.477,22.461,-5.859,-153.320,-793.945
1706146413.864,-11.719,31.738,28.809,46.875,-481.445
1706146413.867,5.859,41.504,57.617,184.570,827.148
1706146413.871,-51.270,35.156,29.297,8.301,621.582
1706146413.875,-119.141,23.438,-1.465,-157.227,-584.473
1706146413.879,-123.535,27.344,25.879,0.000,-749.023
1706146413.883,-144.531,35.156,55.176,185.547,411.621
1706146413.887,-164.551,32.715,38.086,74.707,845.703
1706146413.891,-129.395,23.926,0.000,-123.535,-282.715
1706146413.894,-90.332,27.832,8.789,-61.523,-864.258
1706146413.898,-62.012,37.598,46.875,147.949,56.641
1706146413.902,-47.852,37.598,49.805,149.414,-953.613
1706146413.906,-34.668,30.273,11.230,-67.871,115.723
1706146413.910,30.762,25.879,0.000,-123.535,-897.949
1706146413.911,51.270,36.133,39.062,91.309,-277.832
1706146413.915,8.789,46.387,55.176,186.035,988.770
1706146413.919,-34.668,33.691,20.020,-22.461,461.426
1706146413.923,-58.105,13.672,1.953,-152.344,-711.914
1706146413.927,-55.664,15.137,37.598,33.203,-592.773
1706146413.931,-18.555,24.414,62.988,187.988,666.992
1706146413.935,-1.465,22.949,32.715,11.230,704.590
1706146413.938,21.484,17.090,-4.395,-175.293,-500.977
1706146413.942,71.777,22.461,19.043,-41.016,-843.750
1706146413.946,59.570,38.086,50.781,157.715,284.180
1706146413.950,11.230,37.109,38.086,79.102,942.383
1706146413.954,0.488,24.902,5.371,-127.441,-144.043
1706146413.957,32.227,26.367,9.766,-106.934,-885.742
1706146413.961,25.391,35.645,48.828,113.281,-58.105
1706146413.965,-27.832,37.109,57.129,148.926,-925.781
1706146413.969,-59.570,28.320,18.555,-70.312,251.465
1706146413.973,-48.828,21.973,3.906,-147.949,-857.910
1706146413.977,-34.668,29.297,38.086,63.965,-364.258
1706146413.981,-37.109,35.156,55.176,181.641,913.086
1706146413.984,-60.059,26.367,24.414,-20.508,481.934
1706146413.988,-70.312,20.996,0.977,-161.133,-710.938
1706146413.992,-73.730,29.297,31.250,23.438,-642.578
1706146413.996,-74.707,36.133,59.570,189.941,618.164
1706146414.000,-78.125,28.320,40.527,35.645,762.207
1706146414.001,-78.613,19.043,9.766,-155.273,-424.805
1706146414.005,-36.621,25.391,25.879,-48.828,-875.488
1706146414.009,-16.602,35.645,55.664,161.133,181.641
1706146414.013,-20.996,37.109,44.434,108.398,975.586
1706146414.017,-15.625,24.414,10.254,-105.957,-60.547
1706146414.021,-7.812,20.508,5.859,-101.562,-873.535
1706146414.025,27.344,30.762,38.574,113.281,-129.395
1706146414.028,50.293,35.156,54.199,167.969,-963.379
1706146414.032,49.805,26.855,18.555,-38.574,336.914
1706146414.036,87.891,17.090,-0.977,-137.695,-799.316
1706146414.040,104.980,25.391,36.621,63.477,-466.797
1706146414.044,62.988,37.598,59.570,188.965,825.684
1706146414.046,-8.789,27.344,28.320,-11.230,573.242
1706146414.050,-27.832,16.113,-3.906,-161.621,-627.930
1706146414.054,9.277,25.391,23.438,4.395,-724.121
1706146414.058,2.930,32.715,56.152,177.734,480.957
1706146414.062,-34.180,28.809,34.668,54.688,838.379
1706146414.066,-24.414,21.973,-2.441,-134.766,-297.363
1706146414.070,12.695,22.461,8.789,-52.246,-866.699
1706146414.073,41.504,32.227,49.316,158.691,91.797
1706146414.077,34.180,36.621,53.223,137.695,-985.352
1706146414.081,27.832,27.344,13.672,-80.566,80.566
1706146414.085,45.898,20.020,6.348,-112.305,-819.336
1706146414.089,42.480,29.297,43.945,96.680,-192.383
1706146414.106,19.043,32.227,58.105,177.734,-992.188
1706146414.110,23.438,20.508,18.066,-25.879,358.398
1706146414.114,64.453,15.137,-6.348,-136.230,-753.906
1706146414.118,89.844,24.414,30.273,46.875,-484.375
1706146414.122,96.680,32.715,57.617,194.824,746.094
1706146414.126,64.941,25.391,28.320,18.555,630.859
1706146414.130,53.711,16.602,-0.977,-161.621,-621.094
1706146414.133,66.895,22.949,26.855,-11.719,-808.594
1706146414.137,70.312,34.180,56.152,183.594,399.902
1706146414.141,47.363,32.227,36.133,86.426,875.488
1706146414.145,8.301,21.484,0.977,-124.512,-230.469
1706146414.149,28.320,21.973,11.230,-79.590,-839.355
1706146414.151,46.875,32.227,47.852,133.301,45.898
1706146414.155,40.527,36.621,50.781,148.438,-952.148
1706146414.159,38.574,24.414,12.207,-69.824,141.113
1706146414.163,56.152,13.672,1.465,-132.324,-836.914
1706146414.167,73.730,22.949,38.086,91.309,-273.438
1706146414.171,59.082,31.250,56.641,187.012,936.035
1706146414.175,23.438,23.438,23.926,-35.645,456.055
1706146414.178,19.043,16.602,-0.977,-153.809,-694.824
1706146414.182,48.340,23.926,33.203,38.086,-590.332
1706146414.186,58.105,34.180,62.012,196.777,647.461
1706146414.190,26.367,29.785,33.203,35.645,674.316
1706146414.194,24.902,17.578,-1.465,-137.695,-542.480
1706146414.196,60.547,20.996,22.949,-8.301,-861.816
1706146414.200,59.082,33.203,56.641,181.152,248.047
1706146414.204,31.250,35.156,44.922,108.887,948.242
1706146414.208,26.367,21.973,10.254,-98.145,-143.555
1706146414.212,49.805,15.625,19.043,-83.984,-942.871
1706146414.216,55.664,24.902,57.617,132.812,-109.375
1706146414.220,14.160,26.367,68.359,160.645,-986.328
1706146414.223,-27.344,14.648,32.227,-77.637,236.328
1706146414.227,-15.137,7.324,10.742,-152.832,-817.383
1706146414.231,10.742,18.066,48.828,60.547,-375.488
1706146414.235,5.371,27.832,73.730,179.199,895.508
1706146414.239,-24.414,15.625,38.574,-25.391,565.430
1706146414.241,-24.414,4.883,10.254,-188.965,-636.719
1706146414.245,-13.672,13.672,42.969,-9.277,-681.641
1706146414.249,-19.043,21.484,67.871,161.133,556.152
1706146414.253,-43.945,16.113,45.410,12.207,780.273
1706146414.257,-59.082,7.324,12.207,-186.523,-404.297
1706146414.261,-20.996,10.742,25.879,-90.332,-879.395
1706146414.265,-7.324,20.020,62.012,121.094,166.016
1706146414.268,-25.879,23.438,56.641,80.566,966.797
1706146414.272,-21.484,12.695,18.555,-127.930,-64.453
1706146414.276,13.672,8.789,19.531,-139.648,-903.809
1706146414.280,23.438,20.508,56.641,73.730,-175.781
1706146414.284,13.184,24.902,66.406,139.160,-982.910
1706146414.286,-1.953,18.555,26.367,-75.195,279.297
1706146414.290,-2.441,10.742,3.906,-169.434,-858.887
1706146414.294,13.672,16.602,41.504,35.156,-417.480
1706146414.298,11.719,26.367,62.988,166.504,851.074
1706146414.302,8.301,23.438,29.785,-20.020,603.516
1706146414.306,36.133,16.113,0.000,-173.340,-562.012
1706146414.310,69.824,21.973,29.785,0.000,-714.844
1706146414.313,74.707,32.715,62.012,189.941,449.707
1706146414.317,46.387,26.855,44.434,70.801,820.801
1706146414.321,25.391,14.160,12.695,-121.582,-291.504
1706146414.325,51.270,15.625,21.484,-51.270,-880.859
1706146414.329,78.125,27.344,55.664,151.367,61.523
1706146414.331,79.102,30.762,57.129,139.648,-956.055
1706146414.335,64.453,19.531,16.113,-82.031,69.336
1706146414.339,82.031,16.602,5.371,-116.699,-875.488
1706146414.343,90.332,27.344,46.875,106.934,-235.840
1706146414.347,47.363,28.809,65.430,187.988,970.215
1706146414.351,-13.184,17.090,26.855,-20.996,409.180
1706146414.355,-16.602,8.789,3.906,-132.812,-704.590
1706146414.358,0.000,17.090,37.598,57.617,-498.535
1706146414.362,-0.488,25.391,65.430,198.730,723.145
1706146414.366,1.465,19.043,38.574,33.203,650.879
1706146414.370,5.859,9.277,1.953,-134.766,-518.555
1706146414.374,5.371,17.090,25.391,2.441,-774.902
1706146414.376,-9.766,32.227,59.570,184.082,363.281
1706146414.380,-37.598,31.250,46.387,86.914,895.020
1706146414.384,-52.246,18.555,6.836,-121.582,-214.355
1706146414.388,-21.484,17.090,11.719,-81.543,-911.621
1706146414.392,0.977,24.414,49.805,136.719,-17.090
1706146414.396,-5.371,24.902,55.176,159.668,-970.215
1706146414.400,-5.859,17.090,13.184,-59.082,144.043
1706146414.403,12.207,14.160,-1.465,-141.113,-837.402
1706146414.407,16.113,25.879,40.039,62.988,-308.594
1706146414.411,0.000,34.180,57.617,178.711,924.316
1706146414.415,-21.973,24.902,21.973,-24.902,480.957
1706146414.419,-24.414,16.113,-7.324,-161.621,-689.453
1706146414.422,-20.996,21.973,25.391,30.762,-632.324
1706146414.426,-36.133,31.250,53.711,191.895,613.281
1706146414.430,-41.992,28.320,28.809,29.297,722.656
1706146414.434,-29.297,20.508,-1.465,-151.855,-437.500
1706146414.438,-20.996,25.879,17.090,-29.297,-824.707
1706146414.442,-21.484,31.738,46.875,171.387,236.816
1706146414.446,-31.738,28.809,33.691,103.516,923.340
1706146414.449,-40.527,21.484,-1.465,-113.770,-146.484
1706146414.453,-12.695,21.973,4.395,-103.516,-915.039
1706146414.457,9.766,33.203,46.387,112.793,-105.957
1706146414.461,9.277,37.598,57.617,163.086,-967.773
1706146414.465,13.184,25.391,19.043,-54.688,250.977
1706146414.481,20.508,15.625,2.441,-142.578,-827.637
1706146414.485,35.156,27.832,42.480,78.613,-364.258
1706146414.489,30.762,36.621,63.965,202.637,890.625
1706146414.493,34.668,27.832,32.227,4.883,550.781
1706146414.497,88.867,22.949,6.348,-140.625,-619.629
1706146414.501,106.445,32.715,30.762,31.738,-664.551
1706146414.505,105.957,40.527,56.152,193.848,528.320
1706146414.508,111.328,37.109,39.062,54.199,788.086
1706146414.512,102.539,27.344,4.395,-138.672,-360.840
1706146414.516,132.812,26.855,17.578,-53.711,-851.074
1706146414.520,127.930,37.598,50.781,155.762,148.926
1706146414.524,87.891,38.086,48.828,134.277,996.094
1706146414.527,40.527,24.902,13.672,-78.613,31.250
1706146414.531,60.547,20.996,10.254,-108.398,-840.332
1706146414.535,106.445,31.250,45.898,101.562,-177.734
1706146414.539,80.566,33.691,55.176,166.992,-990.723
1706146414.543,61.523,20.020,20.020,-54.199,315.430
1706146414.547,63.477,14.648,0.000,-152.832,-783.203
1706146414.551,65.918,23.926,33.691,49.805,-426.270
1706146414.554,19.043,34.180,59.570,180.176,783.203
1706146414.558,-45.410,27.832,30.762,-1.465,604.492
1706146414.562,-59.082,17.578,-5.371,-165.039,-545.410
1706146414.566,-34.668,25.391,23.438,-2.441,-736.816
1706146414.570,-30.273,34.668,57.129,185.059,416.504
1706146414.571,-44.922,35.156,41.016,73.730,842.285
1706146414.575,-40.527,26.367,5.371,-125.488,-242.676
1706146414.579,-15.625,22.461,12.207,-60.059,-810.059
1706146414.583,-6.348,32.227,47.363,159.180,48.828
1706146414.587,-34.668,35.645,46.387,147.461,971.680
1706146414.591,-42.480,26.855,9.277,-72.754,43.457
1706146414.595,-33.203,21.973,2.441,-115.723,-880.371
1706146414.598,-40.527,31.250,40.527,97.168,-242.188
1706146414.602,-55.664,38.086,52.734,179.199,925.293
1706146414.606,-58.594,28.809,18.555,-37.598,365.234
1706146414.610,-30.762,19.043,-0.977,-158.203,-732.422
1706146414.614,-5.859,24.902,35.156,41.504,-542.969
1706146414.616,-2.930,34.180,61.523,201.660,705.566
1706146414.620,-14.648,24.414,34.180,40.527,685.059
1706146414.624,-2.930,8.301,3.418,-144.043,-474.121
1706146414.628,24.902,18.066,23.926,-29.785,-772.949
1706146414.632,28.320,32.715,56.641,167.969,324.219
1706146414.636,6.836,35.156,43.457,87.891,881.348
1706146414.640,-17.090,34.668,0.977,-130.371,-175.293
1706146414.643,-1.953,35.156,1.953,-96.680,-819.824
1706146414.647,10.742,41.992,41.504,119.141,-52.734
1706146414.651,-9.277,43.457,51.270,144.531,977.051
1706146414.655,-21.973,28.809,11.719,-77.637,233.398
1706146414.659,-1.465,17.090,-6.836,-140.625,-759.277
1706146414.661,15.137,26.855,31.250,82.520,-341.309
1706146414.665,-1.953,36.621,54.688,190.430,855.469
1706146414.669,-21.973,25.391,21.973,-13.184,455.566
1706146414.673,-6.836,17.578,-3.418,-152.832,-695.312
1706146414.677,20.020,30.273,30.762,34.180,-662.598
1706146414.681,31.738,41.504,58.105,207.520,576.660
1706146414.685,24.902,35.156,37.598,57.617,707.520
1706146414.688,19.043,18.555,7.812,-136.230,-426.270
1706146414.692,20.996,16.602,26.855,-40.039,-821.777
1706146414.696,-0.488,23.926,64.941,149.902,187.012
1706146414.700,-26.367,22.461,57.129,86.426,919.922
1706146414.704,-29.785,10.742,20.020,-141.113,-120.117
1706146414.706,-16.113,6.348,18.555,-146.973,-874.512
1706146414.710,-10.742,19.531,51.270,80.078,-100.098
1706146414.714,-32.227,26.855,62.500,135.254,992.188
1706146414.718,-39.062,19.531,28.320,-82.520,239.746
1706146414.722,-14.648,14.648,9.277,-167.480,-828.125
1706146414.726,2.930,20.996,45.898,54.199,-431.641
1706146414.730,-2.441,29.297,66.406,176.758,833.496
1706146414.733,-13.672,22.949,27.832,-24.414,529.297
1706146414.737,9.766,17.578,-1.953,-170.410,-623.535
1706146414.741,34.180,25.391,32.715,5.859,-689.941
1706146414.745,22.949,32.227,62.500,177.246,491.699
1706146414.749,-11.719,29.785,37.598,50.293,774.902
1706146414.751,-23.438,20.508,1.953,-143.555,-349.609
1706146414.755,0.977,21.484,15.137,-60.547,-805.176
1706146414.759,13.672,31.738,49.805,158.691,123.535
1706146414.763,-6.348,30.762,49.805,136.719,979.492
1706146414.767,-9.766,22.461,13.672,-81.055,15.625
1706146414.771,-1.465,20.508,5.859,-105.469,-868.652
1706146414.775,-10.254,29.785,44.922,109.863,-185.547
1706146414.778,-19.531,39.062,59.570,184.082,949.219
1706146414.782,-20.996,30.762,26.367,-33.691,343.262
1706146414.786,-4.883,23.438,7.812,-144.531,-655.762
1706146414.790,11.230,30.762,40.039,61.035,-430.664
1706146414.794,10.742,34.180,61.523,195.801,742.188
1706146414.797,-2.441,26.367,30.762,3.906,643.066
1706146414.801,3.906,15.625,-2.930,-160.645,-524.414
1706146414.805,25.391,18.555,22.949,-1.953,-746.582
1706146414.809,18.066,28.320,59.570,188.477,400.879
1706146414.813,-7.324,24.414,44.434,85.449,851.562
1706146414.817,-8.789,14.160,4.395,-121.094,-298.828
1706146414.821,15.625,16.113,10.254,-75.684,-900.879
1706146414.824,17.578,27.344,50.781,137.207,30.273
1706146414.828,0.000,29.297,57.129,141.602,998.047
1706146414.832,-7.812,20.020,15.137,-83.008,84.961
1706146414.836,7.812,20.996,1.953,-132.812,-814.453
1706146414.840,17.090,31.250,43.945,85.449,-226.562
1706146414.841,10.742,38.086,61.035,183.105,933.594
1706146414.845,4.883,32.715,23.438,-20.996,454.102
1706146414.849,7.324,21.973,-1.953,-148.438,-692.383
1706146414.853,25.879,27.344,30.762,43.457,-572.266
1706146414.857,34.668,40.527,58.594,206.543,677.246
1706146414.861,8.789,37.109,30.762,35.645,668.457
1706146414.865,5.371,25.879,1.465,-147.949,-465.820
1706146414.868,31.250,28.809,23.438,-12.695,-774.902
1706146414.872,33.203,37.109,51.758,189.453,282.715
1706146414.876,19.531,36.133,39.551,108.398,883.789
1706146414.880,19.531,26.367,2.441,-112.305,-170.898
1706146414.884,28.320,23.926,2.441,-91.797,-860.840
1706146414.902,27.344,31.738,39.551,116.699,-81.543
1706146414.906,12.207,34.180,54.199,150.879,-988.770
1706146414.910,2.930,27.832,16.602,-55.176,189.453
1706146414.914,24.902,22.461,-2.441,-136.230,-786.133
1706146414.918,35.645,30.273,38.086,69.824,-291.016
1706146414.922,24.902,39.551,60.059,185.547,875.488
1706146414.926,15.625,33.203,23.438,-21.484,503.906
1706146414.929,19.043,23.438,-3.418,-165.039,-624.512
1706146414.933,33.203,28.320,27.344,17.090,-626.465
1706146414.937,33.691,38.086,56.641,181.641,559.570
1706146414.941,14.648,35.645,37.109,32.227,750.488
1706146414.945,15.137,23.438,2.441,-153.320,-337.402
1706146414.947,25.391,27.832,15.625,-46.387,-734.863
1706146414.951,14.648,41.504,48.340,156.250,215.820
1706146414.955,3.906,39.062,44.434,111.816,951.660
1706146414.959,9.277,25.391,7.812,-100.098,-63.477
1706146414.963,28.809,23.926,3.906,-104.980,-861.328
1706146414.967,31.738,33.691,40.527,114.746,-116.211
1706146414.971,33.203,35.645,51.758,158.203,955.566
1706146414.974,33.691,26.367,15.137,-63.965,268.066
1706146414.978,28.809,17.578,-0.488,-146.973,-751.465
1706146414.982,28.320,27.344,37.598,58.594,-435.547
1706146414.986,13.672,38.086,60.059,180.176,811.523
1706146414.990,5.859,26.855,26.367,-10.742,558.105
1706146414.991,11.719,13.672,-2.930,-164.062,-680.176
1706146414.995,18.555,19.043,29.785,7.324,-779.785
1706146414.999,25.879,29.785,60.059,186.035,478.027
1706146415.003,17.578,29.297,36.133,54.199,794.434
1706146415.007,9.277,20.996,4.395,-141.602,-342.773
1706146415.011,31.250,23.926,19.043,-62.500,-817.383
1706146415.015,39.062,36.133,52.246,148.438,130.859
1706146415.018,18.066,35.156,51.758,124.023,982.422
1706146415.022,9.766,20.508,7.812,-91.309,36.621
1706146415.026,36.133,20.020,2.441,-112.305,-862.793
1706146415.030,43.457,34.668,46.387,100.098,-221.191
1706146415.034,22.461,36.133,61.523,176.270,947.266
1706146415.036,20.020,24.414,26.367,-38.574,342.773
1706146415.040,32.227,19.043,0.488,-151.367,-720.703
1706146415.044,45.410,32.227,31.250,60.547,-497.559
1706146415.048,38.574,41.992,61.523,210.938,720.215
1706146415.052,22.949,32.227,32.715,16.113,649.902
1706146415.056,26.367,21.484,-4.395,-157.715,-502.930
1706146415.060,41.504,30.762,23.438,-16.602,-735.352
1706146415.063,39.062,38.574,54.199,171.387,385.742
1706146415.067,24.414,34.668,37.598,87.891,811.035
1706146415.071,17.090,21.973,5.371,-113.281,-311.523
1706146415.075,24.902,18.066,10.254,-83.008,-859.375
1706146415.079,34.180,32.227,44.922,127.930,11.719
1706146415.081,28.809,37.598,53.223,150.391,985.352
1706146415.085,21.484,28.809,18.555,-71.289,182.129
1706146415.089,33.203,22.461,0.000,-128.906,-739.258
1706146415.093,48.828,28.320,36.133,97.656,-236.328
1706146415.097,44.434,32.715,57.129,184.082,932.129
1706146415.101,35.156,23.438,19.043,-38.574,459.961
1706146415.105,36.133,16.602,-6.836,-158.691,-625.977
1706146415.108,36.621,26.855,27.344,30.762,-520.996
1706146415.112,29.785,33.691,56.641,186.523,651.855
1706146415.116,10.742,24.414,28.809,28.320,723.145
1706146415.120,11.719,12.695,-4.395,-151.367,-403.320
1706146415.124,26.855,17.090,22.461,-23.438,-780.273
1706146415.126,20.020,29.785,57.129,167.480,267.578
1706146415.130,7.324,34.180,46.387,103.027,927.734
1706146415.134,6.348,23.926,7.812,-102.051,-125.000
1706146415.138,26.855,20.020,6.348,-88.867,-829.590
1706146415.142,37.109,30.762,45.410,135.742,-62.988
1706146415.146,24.902,34.180,53.223,172.852,989.746
1706146415.150,21.973,21.484,8.301,-57.617,216.309
1706146415.153,38.086,18.066,-8.301,-143.555,-783.203
1706146415.157,39.551,35.156,31.738,67.871,-338.867
1706146415.161,20.508,41.504,53.223,186.523,876.465
1706146415.165,11.230,31.738,19.043,-12.695,498.535
1706146415.169,20.996,24.414,-12.207,-158.203,-645.996
1706146415.172,27.832,30.762,17.578,9.766,-678.223
1706146415.176,22.949,40.039,50.781,181.641,513.184
1706146415.180,0.000,34.180,34.668,37.598,783.203
1706146415.184,-3.418,20.020,4.883,-161.133,-343.262
1706146415.188,19.043,24.414,16.602,-56.152,-826.660
1706146415.192,20.508,34.668,47.363,158.691,169.922
1706146415.196,2.441,31.250,43.457,116.211,942.383
1706146415.199,4.883,23.438,7.812,-106.445,-83.984
1706146415.203,30.273,24.414,7.812,-112.793,-887.695
1706146415.207,41.016,38.086,47.363,109.375,-166.992
1706146415.211,30.762,39.551,56.152,173.340,-989.258
1706146415.215,28.809,26.855,13.672,-41.016,356.934
1706146415.231,45.410,22.949,-6.836,-141.602,-718.262
1706146415.235,61.035,30.762,27.832,69.824,-370.605
1706146415.239,58.105,38.086,47.852,200.684,839.844
1706146415.243,45.898,34.180,18.555,0.488,613.770
1706146415.247,53.711,25.879,-8.789,-159.668,-547.852
1706146415.251,61.035,28.809,16.113,2.930,-689.453
1706146415.255,50.781,36.621,49.805,176.758,461.426
1706146415.258,27.344,33.691,41.992,62.012,843.750
1706146415.262,15.137,20.508,8.789,-129.395,-264.648
1706146415.266,32.227,18.555,17.090,-61.523,-824.707
1706146415.270,29.785,28.320,58.105,142.090,112.305
1706146415.274,-0.488,28.809,63.965,128.906,-944.824
1706146415.276,-2.441,17.090,24.414,-89.844,122.559
1706146415.280,16.113,12.695,10.742,-132.324,-882.324
1706146415.284,18.555,26.367,46.875,94.727,-263.184
1706146415.288,5.371,34.668,60.059,177.734,-963.867
1706146415.292,-0.977,24.902,22.461,-41.504,484.863
1706146415.296,11.230,18.066,-2.930,-147.949,-702.637
1706146415.300,20.020,29.297,26.855,49.805,-462.891
1706146415.303,18.066,40.039,51.758,193.848,777.344
1706146415.307,21.973,35.645,22.949,12.695,723.633
1706146415.311,22.949,25.391,-11.230,-164.551,-544.434
1706146415.315,34.180,29.785,17.578,-27.344,-806.152
1706146415.319,39.062,38.086,54.199,173.340,413.574
1706146415.321,16.113,34.180,38.574,91.309,961.914
1706146415.325,0.000,22.949,3.418,-122.070,-197.266
1706146415.329,16.113,20.508,15.625,-86.426,-983.398
1706146415.333,20.020,31.250,54.199,125.977,-15.137
1706146415.337,1.465,36.621,58.105,153.809,-861.816
1706146415.341,4.395,24.902,20.508,-61.035,256.348
1706146415.345,21.484,18.555,11.230,-131.348,-913.574
1706146415.348,10.254,29.297,52.246,90.332,-271.484
1706146415.352,5.371,35.645,68.359,200.684,-934.082
1706146415.356,8.789,26.855,33.203,-11.719,551.758
1706146415.360,13.672,19.043,4.883,-146.484,-756.836
1706146415.364,24.902,26.855,33.203,34.180,-607.422
1706146415.366,21.484,35.645,60.059,188.965,753.418
1706146415.370,6.836,29.785,31.738,33.203,813.965
1706146415.374,9.277,20.996,1.953,-151.367,-422.363
1706146415.378,30.762,27.344,22.461,-35.156,-855.469
1706146415.382,34.180,35.156,52.734,166.016,276.367
1706146415.386,2.930,29.297,43.457,98.633,-935.059
1706146415.390,-9.277,18.555,6.348,-113.770,-50.781
1706146415.393,9.277,17.090,7.324,-95.215,-974.121
1706146415.397,12.695,25.879,43.457,117.676,-60.547
1706146415.401,-2.441,29.785,56.641,164.062,-849.121
1706146415.405,3.906,19.043,22.461,-58.105,346.191
1706146415.409,31.738,16.602,-0.488,-146.484,-927.734
1706146415.413,35.156,34.668,31.738,73.242,-399.414
1706146415.417,14.160,44.922,51.758,198.730,999.512
1706146415.421,-0.977,36.621,21.484,-8.301,618.164
1706146415.425,5.859,24.902,-8.789,-166.016,-709.473
1706146415.429,24.414,29.297,19.531,16.113,-698.242
1706146415.433,17.578,38.574,54.199,190.918,634.766
1706146415.437,2.930,33.691,33.203,55.664,871.582
1706146415.440,11.719,19.043,-6.348,-135.742,-425.781
1706146415.444,26.367,19.043,10.254,-49.316,-1000.000
1706146415.448,20.508,30.762,49.805,151.367,93.262
1706146415.452,-0.977,33.203,44.922,112.305,-876.465
1706146415.456,5.371,25.879,7.324,-102.539,31.738
1706146415.456,28.320,19.043,5.371,-114.746,-1000.000
1706146415.460,24.902,32.715,44.434,108.887,-270.508
1706146415.464,15.137,41.992,58.105,181.152,-856.934
1706146415.468,15.137,27.832,23.926,-33.203,403.809
1706146415.472,28.320,22.461,2.930,-138.184,-992.188
1706146415.476,31.738,32.227,34.180,60.547,-594.727
1706146415.480,22.949,41.504,55.664,201.660,895.020
1706146415.483,13.184,32.715,24.902,5.371,674.805
1706146415.487,10.742,16.602,-2.441,-172.363,-704.590
1706146415.491,23.926,24.414,26.855,-16.113,-894.043
1706146415.495,37.598,33.203,59.570,184.082,454.102
1706146415.499,29.297,30.273,42.480,75.195,968.262
1706146415.501,19.043,21.973,4.395,-136.230,-328.125
1706146415.505,28.320,21.973,19.043,-69.824,-1000.000
1706146415.509,27.344,32.715,53.711,137.207,21.484
1706146415.513,13.672,33.203,54.688,129.395,-848.145
1706146415.517,12.695,22.949,19.531,-82.520,155.273
1706146415.521,22.461,18.066,5.859,-126.953,-1000.000
1706146415.525,25.879,29.297,43.945,82.520,-347.168
1706146415.528,20.020,38.574,61.035,176.758,-908.691
1706146415.532,13.184,27.344,27.344,-27.344,511.230
1706146415.536,28.809,18.066,3.906,-146.484,-897.461
1706146415.540,46.387,27.344,35.156,55.176,-715.332
1706146415.544,33.203,35.645,58.594,201.172,760.254
1706146415.546,12.695,31.250,26.367,26.367,717.773
1706146415.550,25.391,19.531,-8.301,-149.414,-664.551
1706146415.554,36.133,21.484,18.555,-19.043,-1000.000
1706146415.558,18.555,33.203,55.664,181.641,289.551
1706146415.562,8.789,38.086,44.922,100.098,-982.422
1706146415.566,12.207,29.297,5.371,-116.699,-225.586
1706146415.570,18.555,28.809,7.324,-83.496,-1000.000
1706146415.573,17.090,37.598,51.270,128.418,-137.207
1706146415.577,5.371,36.621,63.477,141.113,-853.516
1706146415.581,4.395,24.414,20.020,-68.359,240.723
1706146415.585,15.137,20.508,0.977,-130.371,-1000.000
1706146415.589,16.602,29.785,42.969,85.938,-463.379
1706146415.592,14.160,37.109,65.430,201.660,-993.652
1706146415.596,12.207,26.367,25.879,-21.484,555.176
1706146415.600,14.160,14.648,-0.977,-170.898,-815.430
1706146415.604,20.020,24.414,36.133,23.926,-744.629
1706146415.608,17.090,38.574,63.477,188.477,667.969
1706146415.612,8.789,34.668,33.203,38.574,778.809
1706146415.616,13.184,24.414,-2.441,-146.484,-551.758
1706146415.619,24.902,29.297,20.508,-43.457,-1000.000
1706146415.623,21.973,39.062,54.688,161.621,179.199
1706146415.627,11.230,37.598,47.852,109.863,-952.148
1706146415.631,16.602,20.996,10.742,-103.516,-87.891
1706146415.635,31.250,19.531,9.766,-101.074,-1000.000
1706146415.652,31.738,33.691,46.875,112.305,-222.168
1706146415.656,23.926,38.086,59.082,161.133,-859.863
1706146415.660,19.531,26.367,23.926,-60.547,323.730
1706146415.664,27.832,18.555,0.488,-148.438,-1000.000
1706146415.668,39.551,28.809,35.156,65.430,-507.812
1706146415.672,34.180,32.715,55.664,186.035,952.148
1706146415.676,21.484,25.391,24.902,-11.230,597.656
1706146415.679,30.273,18.066,-2.441,-163.086,-787.109
1706146415.683,40.527,21.484,21.973,9.277,-840.332
1706146415.687,33.203,30.762,52.734,186.523,531.738
1706146415.691,12.695,29.297,38.086,54.688,880.859
1706146415.695,14.648,20.508,2.930,-143.066,-389.160
1706146415.696,33.203,20.508,14.648,-66.406,-1000.000
1706146415.700,30.762,27.832,48.340,137.695,102.051
1706146415.704,7.812,28.809,48.340,109.375,-900.391
1706146415.708,5.371,22.461,11.719,-107.422,19.531
1706146415.712,19.531,22.461,0.977,-126.953,-1000.000
1706146415.716,21.484,31.250,36.621,93.262,-290.527
1706146415.720,15.137,34.180,53.223,166.016,-904.785
1706146415.723,14.648,29.785,20.508,-44.434,402.344
1706146415.727,35.645,20.996,-1.953,-151.367,-908.691
1706146415.731,46.875,25.391,33.691,45.898,-547.363
1706146415.735,34.668,34.668,61.523,182.617,841.309
1706146415.739,20.020,25.879,28.809,-1.953,683.105
1706146415.741,36.133,18.555,-3.906,-159.668,-669.434
1706146415.745,50.781,23.438,25.879,-2.441,-952.637
1706146415.749,37.598,29.785,56.641,183.594,377.930
1706146415.753,25.391,26.367,38.574,76.660,931.641
1706146415.757,34.668,14.160,5.371,-129.395,-298.340
1706146415.761,49.316,16.602,11.230,-72.754,-1000.000
1706146415.765,47.852,30.762,45.410,149.902,-1.465
1706146415.768,36.621,34.180,53.711,151.855,-895.020
1706146415.772,19.531,19.531,19.043,-83.008,117.188
1706146415.776,17.578,10.254,9.766,-139.648,-1000.000
1706146415.780,33.691,24.902,45.898,80.078,-377.441
1706146415.784,32.227,33.203,58.594,183.594,-966.309
1706146415.786,23.438,24.902,22.461,-36.133,475.098
1706146415.790,39.062,21.484,-6.836,-170.410,-855.957
1706146415.794,38.574,25.879,27.832,26.367,-704.590
1706146415.798,16.113,29.297,61.523,186.523,705.566
1706146415.802,-2.441,27.344,34.180,21.484,725.586
1706146415.806,6.836,17.090,0.488,-146.973,-625.977
1706146415.810,31.250,21.484,22.949,-12.695,-999.023
1706146415.813,37.598,30.273,56.641,174.805,265.625
1706146415.817,20.508,29.297,47.852,92.285,982.422
1706146415.821,19.043,22.949,8.301,-112.305,-173.340
1706146415.825,30.273,20.020,6.836,-84.473,-1000.000
1706146415.829,29.297,29.297,46.875,129.395,-151.367
1706146415.832,26.367,35.156,57.129,164.551,-884.277
1706146415.836,25.879,24.414,20.508,-53.711,277.344
1706146415.840,23.926,19.043,5.371,-135.742,-959.473
1706146415.844,29.297,31.738,39.062,77.637,-454.102
1706146415.848,27.832,40.039,59.082,192.383,967.285
1706146415.852,13.184,30.273,25.879,-12.695,526.367
1706146415.856,20.508,17.090,2.441,-154.297,-825.684
1706146415.859,34.668,24.902,32.715,20.508,-736.328
1706146415.863,29.297,35.645,63.477,187.012,612.793
1706146415.867,12.695,32.715,43.457,49.805,780.762
1706146415.871,23.438,22.461,6.348,-139.160,-464.355
1706146415.875,38.574,22.949,25.391,-44.434,-957.031
1706146415.877,34.180,33.691,58.594,158.203,156.738
1706146415.881,17.090,37.109,51.270,112.793,-967.285
1706146415.885,11.230,24.414,13.184,-100.098,-58.105
1706146415.889,23.438,20.996,8.789,-102.539,-1000.000
1706146415.893,24.902,30.273,42.480,110.352,-202.637
1706146415.897,19.531,35.645,53.711,165.039,-893.066
1706146415.901,18.066,25.391,20.508,-47.852,342.773
1706146415.904,22.949,16.602,2.441,-147.461,-934.570
1706146415.908,20.020,27.832,42.480,56.152,-458.496
1706146415.912,16.113,40.527,65.430,189.453,905.762
1706146415.916,19.043,32.715,30.273,-3.906,639.648
1706146415.920,32.227,20.020,-1.465,-156.250,-670.898
1706146415.921,44.922,26.855,26.367,15.625,-840.332
1706146415.925,28.809,35.156,56.152,189.453,491.699
1706146415.929,13.184,32.715,36.133,61.035,856.934
1706146415.933,10.742,21.973,-0.488,-137.207,-387.207
1706146415.937,16.113,20.996,12.695,-64.941,-1000.000
1706146415.941,22.461,33.203,48.828,145.508,44.434
1706146415.945,8.301,36.133,45.410,129.883,-942.871
1706146415.948,-0.488,22.949,9.766,-96.191,-2.441
1706146415.952,17.090,16.602,3.906,-128.418,-1000.000
1706146415.956,18.555,27.832,36.621,91.309,-302.246
1706146415.960,5.859,32.715,53.711,172.852,-959.473
1706146415.964,6.348,23.438,20.996,-44.434,401.855
1706146415.981,24.414,18.555,-3.906,-157.715,-854.492
1706146415.985,33.691,27.832,27.344,43.945,-554.199
1706146415.989,26.367,32.227,55.176,190.430,781.250
1706146415.993,11.230,22.461,29.297,16.602,681.152
1706146415.997,12.207,14.160,-4.395,-162.109,-601.562
1706146416.001,22.949,21.973,20.020,-22.461,-843.262
1706146416.005,15.137,31.250,51.758,169.922,388.184
1706146416.008,-0.977,28.809,37.598,70.312,924.805
1706146416.012,0.488,19.043,5.371,-135.742,-253.906
1706146416.016,15.137,19.531,11.230,-90.820,-986.816
1706146416.020,13.672,29.297,44.922,121.094,-24.414
1706146416.024,5.859,35.645,55.664,137.695,-910.156
1706146416.026,10.254,28.320,18.066,-78.613,191.406
1706146416.030,22.461,20.508,0.977,-135.254,-920.410
1706146416.034,21.973,29.297,41.504,73.730,-348.145
1706146416.038,9.766,33.203,58.594,171.875,994.141
1706146416.042,2.930,25.391,18.555,-32.227,497.559
1706146416.046,14.160,19.531,-1.953,-157.715,-808.594
1706146416.050,33.691,27.832,32.715,34.180,-678.711
1706146416.053,35.645,39.062,59.082,191.895,682.129
1706146416.057,13.672,33.203,35.156,34.180,751.953
1706146416.061,11.719,19.043,1.465,-142.090,-510.254
1706146416.065,36.621,24.414,25.391,-22.461,-911.133
1706146416.069,41.992,38.086,59.570,177.734,274.902
1706146416.071,19.043,34.668,43.945,114.746,970.703
1706146416.075,9.277,25.391,10.742,-102.051,-149.902
1706146416.079,27.344,24.902,15.625,-86.426,-986.328
1706146416.083,37.109,33.691,48.340,130.859,-119.629
1706146416.087,22.461,39.551,53.223,156.738,-895.508
1706146416.091,20.020,28.809,14.160,-58.594,238.770
1706146416.095,44.922,19.531,-2.441,-133.789,-884.766
1706146416.098,59.082,30.273,37.598,77.637,-348.633
1706146416.102,47.363,40.039,58.105,195.312,933.594
1706146416.106,34.668,34.668,26.367,-13.672,540.039
1706146416.110,61.035,25.879,3.418,-155.273,-723.145
1706146416.114,82.520,28.320,28.809,18.066,-728.027
1706146416.117,64.941,36.621,52.734,183.594,561.523
1706146416.121,49.805,32.715,36.621,47.852,816.895
1706146416.125,50.781,20.508,6.348,-143.555,-415.039
1706146416.129,63.965,21.484,18.066,-45.898,-930.176
1706146416.133,61.523,31.738,52.246,161.621,168.945
1706146416.137,40.527,32.227,48.828,125.488,-976.074
1706146416.141,38.574,22.949,9.766,-84.961,-22.461
1706146416.144,49.805,21.973,7.812,-96.680,-908.691
1706146416.148,52.246,32.715,44.922,107.422,-168.457
1706146416.152,30.273,37.109,56.641,164.062,-942.383
1706146416.156,8.301,23.926,17.578,-51.758,391.113
1706146416.160,20.996,14.160,-4.883,-140.137,-827.148
1706146416.161,30.273,20.996,38.086,63.965,-484.375
1706146416.165,22.949,28.320,63.477,185.547,849.609
1706146416.169,8.301,22.949,29.297,5.371,636.719
1706146416.173,7.812,12.207,1.953,-152.344,-616.211
1706146416.177,27.832,22.461,25.879,3.418,-770.508
1706146416.181,20.020,34.180,55.176,182.129,454.102
1706146416.185,-0.977,27.344,40.039,58.594,885.254
1706146416.188,-10.254,15.625,1.953,-149.414,-259.277
1706146416.192,-15.625,15.137,13.184,-79.102,-933.594
1706146416.196,-9.277,24.902,53.223,134.766,42.480
1706146416.200,-12.207,27.344,50.781,125.000,-929.688
1706146416.204,-10.742,20.020,12.695,-89.355,108.887
1706146416.206,9.277,18.066,8.301,-127.441,-942.383
1706146416.210,16.113,26.367,43.945,98.145,-263.672
1706146416.214,15.625,33.691,54.688,177.734,-944.824
1706146416.218,16.602,24.414,20.020,-42.480,432.129
1706146416.222,24.414,15.137,0.488,-141.602,-819.824
1706146416.226,31.250,28.809,31.738,60.547,-554.688
1706146416.230,24.902,39.062,55.664,195.312,778.809
1706146416.233,16.602,27.344,24.414,10.254,690.918
1706146416.237,28.809,18.066,-3.906,-163.086,-549.805
1706146416.241,32.715,26.855,25.879,-21.484,-823.242
1706146416.245,22.461,35.156,52.246,169.922,351.562
1706146416.249,15.625,27.832,39.551,84.961,937.988
1706146416.251,12.695,14.160,9.277,-118.652,-223.633
1706146416.255,16.602,10.742,16.113,-88.379,-984.863
1706146416.259,14.160,25.391,48.340,118.652,-59.082
1706146416.263,3.418,36.133,51.758,139.648,-899.414
1706146416.267,-8.301,25.391,13.184,-85.938,200.195
1706146416.271,-7.812,20.508,-6.836,-154.785,-955.078
1706146416.275,-9.277,32.227,28.320,59.570,-381.836
1706146416.278,-28.809,37.598,51.758,159.668,961.914
1706146416.282,-37.109,28.320,19.043,-42.480,526.367
1706146416.286,-21.973,15.625,-8.789,-168.457,-770.020
1706146416.290,-0.977,21.484,27.832,17.578,-690.430
1706146416.294,0.488,32.715,57.129,182.129,648.926
1706146416.296,-14.160,27.344,29.785,28.320,743.164
1706146416.300,-0.488,18.066,-2.930,-158.691,-479.980
1706146416.304,18.555,23.438,20.020,-37.598,-882.324
1706146416.308,11.719,38.574,54.688,152.344,237.305
1706146416.312,1.465,38.574,45.410,98.145,980.957
1706146416.316,5.371,23.438,6.836,-99.609,-85.449
1706146416.320,26.855,22.461,6.348,-96.680,-950.195
1706146416.323,24.414,36.133,45.898,120.117,-146.484
1706146416.327,12.695,41.504,57.129,171.875,-905.762
1706146416.331,12.695,29.297,18.555,-52.734,304.199
1706146416.335,7.812,23.926,1.953,-145.996,-888.672
1706146416.339,10.742,37.109,37.598,71.289,-434.570
1706146416.343,9.277,42.969,57.129,190.918,916.504
1706146416.347,0.488,29.785,20.020,-13.672,605.469
1706146416.351,16.602,19.043,-7.812,-163.574,-653.809
1706146416.355,39.551,25.391,27.832,14.160,-734.375
1706146416.359,54.199,34.668,57.617,187.988,551.270
1706146416.363,62.988,29.785,35.156,51.270,813.477
1706146416.367,71.777,22.949,5.371,-145.996,-400.391
1706146416.370,89.844,27.832,19.043,-57.617,-909.180
1706146416.374,96.191,36.133,46.875,149.902,127.930
1706146416.378,76.660,39.062,45.898,116.211,-954.590
1706146416.382,58.105,24.902,12.207,-91.797,22.461
1706146416.386,78.125,19.043,9.766,-104.492,-948.730
1706146416.402,97.656,31.250,45.410,107.910,-193.848
1706146416.406,82.031,32.227,57.617,174.805,-934.570
1706146416.410,61.523,22.461,19.531,-43.457,407.715
1706146416.414,68.359,19.531,-0.488,-146.973,-816.895
1706146416.418,68.848,34.180,33.691,63.477,-498.047
1706146416.422,67.871,42.480,54.199,193.848,836.426
1706146416.426,71.777,36.621,26.367,0.000,640.137
1706146416.429,76.172,28.809,0.000,-162.109,-577.637
1706146416.433,86.914,32.227,27.344,-4.883,-748.047
1706146416.437,75.195,39.062,58.105,187.012,431.641
1706146416.441,51.270,36.133,44.434,77.637,877.441
1706146416.445,49.316,24.414,10.254,-126.465,-255.371
1706146416.446,68.359,22.949,13.184,-65.918,-896.973
1706146416.450,61.523,31.250,48.828,140.137,49.805
1706146416.454,16.113,31.738,52.734,136.230,-946.777
1706146416.458,1.953,20.020,15.137,-77.637,123.535
1706146416.462,35.645,16.113,2.441,-127.930,-932.617
1706146416.466,43.457,26.855,36.621,81.055,-323.242
1706146416.470,22.949,35.156,59.570,178.223,-982.910
1706146416.473,5.859,27.344,24.414,-35.645,453.613
1706146416.477,16.602,20.996,-2.441,-159.668,-811.035
1706146416.481,38.086,29.785,30.762,30.762,-606.445
1706146416.485,34.668,38.086,58.105,187.988,734.863
1706146416.489,16.113,27.832,29.297,22.949,708.008
1706146416.491,24.414,16.602,-2.441,-150.391,-514.648
1706146416.495,49.805,27.344,23.926,-12.207,-841.309
1706146416.499,55.664,39.551,60.059,174.805,320.312
1706146416.503,42.969,36.133,44.434,95.215,941.895
1706146416.507,36.621,25.391,5.371,-111.328,-210.449
1706146416.511,47.363,24.902,10.254,-77.148,-983.887
1706146416.515,55.176,36.133,43.457,132.812,-84.961
1706146416.518,40.039,38.086,51.270,150.391,-946.289
1706146416.522,23.926,25.391,19.531,-69.824,210.938
1706146416.526,36.621,21.484,4.883,-144.043,-924.316
1706146416.530,61.035,35.645,38.086,80.566,-375.977
1706146416.534,64.941,39.062,56.641,203.125,970.703
1706146416.536,29.297,26.367,27.344,-18.066,568.359
1706146416.540,29.297,17.578,3.418,-166.016,-691.406
1706146416.544,54.688,22.949,36.133,20.508,-664.551
1706146416.548,43.457,30.762,65.918,189.941,639.648
1706146416.552,14.648,22.949,46.387,34.180,783.203
1706146416.556,1.953,11.230,14.648,-166.016,-401.367
1706146416.560,18.066,15.625,33.203,-43.945,-880.859
1706146416.563,23.926,26.855,64.453,160.645,204.590
1706146416.567,7.324,28.809,56.641,89.355,979.980
1706146416.571,-5.371,16.602,21.973,-127.930,-101.074
1706146416.575,3.906,12.207,14.648,-111.328,-948.242
1706146416.579,12.695,26.855,47.852,110.352,-126.953
1706146416.582,6.836,30.273,59.570,165.039,-916.504
1706146416.586,-9.277,16.602,20.020,-47.363,322.266
1706146416.590,-2.441,9.277,-0.488,-134.766,-837.891
1706146416.594,2.930,21.973,37.598,71.777,-407.715
1706146416.598,-4.395,32.227,60.547,193.848,902.832
1706146416.602,-8.789,25.879,28.809,-1.953,554.199
1706146416.606,3.418,18.555,-2.441,-164.062,-664.062
1706146416.609,18.066,20.020,27.344,1.465,-689.453
1706146416.613,10.742,26.855,62.988,177.246,515.137
1706146416.617,-10.742,26.855,43.457,54.199,836.914
1706146416.621,-8.301,15.625,9.277,-129.395,-359.375
1706146416.625,13.672,17.578,20.020,-52.246,-927.734
1706146416.626,9.766,26.855,50.781,144.531,124.512
1706146416.630,2.441,29.297,47.363,123.047,-961.914
1706146416.634,5.371,20.508,7.812,-87.891,-1.953
1706146416.638,17.578,17.090,4.883,-111.328,-965.820
1706146416.642,27.832,32.715,42.480,108.398,-226.562
1706146416.646,17.090,41.016,51.758,181.152,-976.562
1706146416.650,1.465,28.320,16.602,-39.551,375.977
1706146416.653,0.488,18.555,-2.930,-152.832,-831.055
1706146416.657,2.930,28.809,33.691,58.105,-536.133
1706146416.661,4.883,36.621,60.059,210.938,809.570
1706146416.665,2.930,28.809,35.156,38.086,650.879
1706146416.669,7.324,19.043,2.441,-123.535,-597.168
1706146416.671,24.902,21.484,23.926,10.742,-764.648
1706146416.675,27.344,30.762,56.152,175.293,444.336
1706146416.679,13.672,30.762,39.062,62.012,871.582
1706146416.683,18.066,21.973,5.371,-139.160,-259.766
1706146416.687,43.457,21.973,16.113,-73.730,-881.836
1706146416.691,35.645,33.203,49.805,135.254,26.855
1706146416.695,21.484,39.551,56.152,130.371,-981.934
1706146416.698,32.715,33.203,21.973,-83.496,94.238
1706146416.702,45.410,29.297,10.254,-128.906,-925.293
1706146416.706,53.711,36.133,42.969,92.285,-333.984
1706146416.710,41.016,38.574,55.664,187.500,992.676
1706146416.714,10.254,27.832,24.414,-23.926,463.379
1706146416.732,1.953,18.066,1.465,-148.926,-762.207
1706146416.736,6.348,29.297,29.785,42.480,-592.773
1706146416.740,-1.465,41.016,55.176,189.941,698.730
1706146416.744,-1.953,31.250,29.785,21.484,712.402
1706146416.748,4.395,17.578,-3.906,-152.832,-523.926
1706146416.752,18.066,19.043,16.602,-20.020,-852.051
1706146416.756,20.020,27.832,54.688,178.223,294.434
1706146416.759,10.742,30.273,46.387,92.773,940.430
1706146416.763,24.414,21.973,6.348,-119.141,-145.508
1706146416.767,41.016,21.484,8.301,-87.891,-948.242
1706146416.771,15.137,34.668,48.828,114.258,-108.887
1706146416.775,4.883,39.062,59.082,139.648,-931.152
1706146416.776,19.043,27.832,19.043,-73.242,239.258
1706146416.780,28.809,21.973,0.977,-143.555,-852.539
1706146416.784,29.297,30.762,38.574,72.754,-380.859
1706146416.788,8.789,36.621,62.988,184.570,926.758
1706146416.792,2.930,25.879,30.273,-20.996,538.086
1706146416.796,10.254,12.695,1.953,-163.574,-752.441
1706146416.800,37.598,18.555,33.691,23.438,-698.730
1706146416.803,59.570,31.738,63.965,187.988,594.727
1706146416.807,39.551,26.855,40.527,42.969,767.578
1706146416.811,44.434,14.160,2.930,-136.719,-391.113
1706146416.815,65.430,18.066,21.484,-37.598,-836.426
1706146416.819,63.477,27.344,55.664,160.156,204.102
1706146416.821,45.898,27.832,48.828,114.258,977.051
1706146416.825,23.438,20.996,14.160,-100.586,-111.816
1706146416.829,16.602,19.531,15.137,-107.910,-946.289
1706146416.833,18.555,28.320,50.781,102.539,-119.629
1706146416.837,22.949,34.668,56.152,150.879,-937.500
1706146416.841,17.090,24.414,17.578,-68.848,313.477
1706146416.845,31.738,17.090,2.930,-159.180,-798.828
1706146416.848,44.922,25.879,41.016,56.152,-406.738
1706146416.852,24.414,29.297,63.965,188.477,838.867
1706146416.856,7.324,24.902,34.668,-1.953,533.691
1706146416.860,23.438,21.484,6.348,-150.879,-663.086
1706146416.864,43.945,30.273,31.250,17.578,-699.707
1706146416.867,41.016,37.109,62.500,201.660,509.277
1706146416.871,12.207,29.297,45.898,60.059,822.266
1706146416.875,8.301,18.066,7.324,-139.648,-321.777
1706146416.879,25.391,17.578,19.531,-44.434,-868.652
1706146416.883,10.742,27.832,54.688,154.297,101.074
1706146416.887,-12.207,30.762,51.758,122.070,-995.605
1706146416.891,-22.949,17.578,14.648,-104.492,9.766
1706146416.894,-10.742,10.254,7.812,-135.742,-906.738
1706146416.898,0.977,20.508,44.434,76.172,-228.027
1706146416.902,-5.371,30.273,61.035,148.926,991.699
1706146416.906,-16.602,20.996,24.414,-58.105,372.559
1706146416.910,-9.766,13.184,-2.930,-158.203,-770.996
1706146416.911,8.789,23.926,32.227,45.898,-491.699
1706146416.915,-4.883,34.180,59.082,192.383,783.691
1706146416.919,-21.973,35.645,22.949,12.207,637.207
1706146416.923,-11.719,28.320,-10.742,-155.762,-559.082
1706146416.927,3.418,35.645,18.066,-17.090,-754.395
1706146416.931,-3.418,45.410,49.805,158.203,399.902
1706146416.935,-27.832,40.527,34.180,56.152,877.930
1706146416.938,-18.555,28.320,-2.441,-142.578,-302.734
1706146416.942,5.371,27.344,7.812,-93.262,-947.754
1706146416.946,5.859,38.086,51.758,122.070,16.113
1706146416.950,-1.465,36.133,57.129,137.207,-944.824
1706146416.954,1.465,22.949,16.602,-83.008,117.676
1706146416.956,22.461,20.020,4.883,-142.578,-908.691
1706146416.960,46.875,31.738,42.480,77.637,-273.926
1706146416.964,41.992,39.551,55.176,178.223,949.707
1706146416.968,24.414,30.273,21.484,-27.344,466.797
1706146416.972,36.621,18.555,0.488,-144.531,-665.039
1706146416.976,45.410,27.344,32.227,41.992,-575.684
1706146416.980,41.504,41.016,59.082,198.242,645.508
1706146416.983,32.227,32.227,30.273,33.203,672.852
1706146416.987,25.879,21.973,-1.465,-150.391,-507.324
1706146416.991,30.762,26.855,22.461,-20.020,-860.352
1706146416.995,22.461,38.086,50.781,171.875,260.742
1706146416.999,5.859,39.062,41.992,99.609,930.176
1706146417.002,-10.742,25.879,11.230,-106.445,-138.672
1706146417.006,0.488,20.996,11.230,-87.402,-875.977
1706146417.010,15.625,31.250,45.898,118.164,-89.355
1706146417.014,9.766,38.086,51.270,148.438,-995.117
1706146417.018,10.742,26.855,13.672,-56.641,235.840
1706146417.022,23.926,21.973,0.000,-124.512,-783.691
1706146417.026,25.391,30.273,36.621,77.148,-356.445
1706146417.029,13.184,35.645,62.500,186.035,866.211
1706146417.033,6.836,29.297,30.273,-3.906,515.137
1706146417.037,10.742,20.020,-2.930,-145.996,-676.270
1706146417.041,15.137,22.949,26.367,29.297,-674.805
1706146417.045,6.348,31.738,56.152,189.941,563.477
1706146417.047,-13.672,27.832,34.180,38.574,741.699
1706146417.051,-13.184,17.090,-2.441,-147.461,-403.320
1706146417.055,-9.277,19.043,15.137,-48.828,-824.707
1706146417.059,-8.789,30.273,50.293,153.320,181.641
1706146417.063,-20.508,32.715,43.945,114.258,941.406
1706146417.067,-23.926,20.996,8.301,-96.680,-58.594
1706146417.071,-8.301,14.648,1.953,-111.816,-846.680
1706146417.074,-11.719,27.344,39.062,106.445,-157.227
1706146417.078,-19.043,34.668,55.176,172.363,992.188
1706146417.082,-16.113,23.926,17.578,-44.922,282.227
1706146417.086,-2.441,17.578,-4.395,-141.113,-793.457
1706146417.090,-0.488,30.273,31.738,62.500,-414.062
1706146417.107,-4.883,38.086,58.105,192.383,813.477
1706146417.111,-3.906,27.344,26.855,0.977,563.477
1706146417.115,1.953,18.555,-7.324,-158.691,-575.195
1706146417.119,2.441,26.367,20.996,3.418,-700.684
1706146417.123,-0.977,36.133,53.223,179.199,437.012
1706146417.127,-9.277,35.156,32.715,51.270,779.785
1706146417.131,-3.418,26.367,-4.395,-153.809,-332.520
1706146417.134,17.090,25.879,9.277,-68.359,-855.469
1706146417.138,15.625,36.133,45.898,156.250,76.660
1706146417.142,-7.324,36.621,48.828,131.836,944.824
1706146417.146,-1.953,24.414,16.113,-85.938,6.348
1706146417.150,11.719,18.066,11.230,-115.234,-831.055
1706146417.151,-2.930,29.297,49.316,104.004,-211.914
1706146417.155,-6.348,40.039,63.477,176.758,912.109
1706146417.159,-3.418,31.250,29.297,-43.945,360.840
1706146417.163,1.465,21.973,7.812,-153.320,-723.145
1706146417.167,5.859,26.855,38.086,34.668,-515.137
1706146417.171,-2.441,33.203,61.523,184.082,701.172
1706146417.175,-9.277,27.344,32.227,10.254,602.539
1706146417.178,-7.324,15.137,-1.465,-157.227,-526.367
1706146417.182,0.000,17.578,25.391,-11.230,-747.070
1706146417.186,3.906,29.785,56.641,168.457,323.242
1706146417.190,3.906,32.715,43.945,81.543,798.340
1706146417.194,4.883,23.438,9.277,-122.070,-280.273
1706146417.196,13.672,20.508,14.160,-83.984,-898.926
1706146417.200,12.207,32.715,48.340,132.812,-14.160
1706146417.204,0.977,39.062,51.758,147.949,-991.211
1706146417.208,13.184,26.367,15.137,-68.359,107.422
1706146417.212,22.949,20.996,1.953,-123.047,-845.703
1706146417.216,19.043,27.344,41.504,96.680,-289.062
1706146417.220,19.043,35.645,60.547,196.289,886.230
1706146417.223,23.926,32.715,26.367,-9.766,374.023
1706146417.227,31.250,21.484,-0.977,-151.367,-709.961
1706146417.231,24.414,25.879,31.738,28.809,-522.949
1706146417.235,16.113,36.621,64.453,196.777,641.602
1706146417.239,7.812,30.762,39.062,27.832,708.008
1706146417.241,6.348,19.531,6.836,-155.762,-401.367
1706146417.245,14.648,19.043,27.832,-27.344,-791.016
1706146417.249,12.695,28.809,59.570,160.156,240.234
1706146417.253,10.254,28.320,50.781,94.727,887.207
1706146417.257,16.602,14.160,9.277,-103.516,-177.734
1706146417.261,30.762,15.625,11.230,-86.426,-866.699
1706146417.265,28.809,28.809,51.758,123.535,-92.773
1706146417.268,15.137,34.668,59.570,159.668,957.520
1706146417.272,20.020,25.391,19.043,-62.988,208.496
1706146417.276,35.645,19.043,4.883,-140.137,-779.785
1706146417.280,36.621,28.809,41.992,73.730,-354.980
1706146417.284,27.832,35.156,60.059,191.895,822.266
1706146417.286,23.438,25.879,28.320,-7.812,506.348
1706146417.290,23.926,15.625,-0.488,-162.598,-610.840
1706146417.294,30.762,21.973,25.391,14.160,-657.227
1706146417.298,26.855,31.738,53.223,187.500,534.668
1706146417.302,20.508,25.391,34.668,56.641,751.465
1706146417.306,28.320,15.625,2.441,-132.324,-319.336
1706146417.310,28.809,18.066,20.020,-41.992,-783.203
1706146417.313,20.508,25.879,58.105,155.762,112.793
1706146417.317,13.672,28.809,53.223,112.305,879.395
1706146417.321,23.926,20.996,14.648,-98.145,-65.430
1706146417.325,20.020,17.578,11.719,-109.863,-791.504
1706146417.329,16.113,29.785,49.805,112.305,-122.559
1706146417.332,20.996,37.109,57.129,169.434,949.219
1706146417.336,14.648,26.855,16.113,-52.734,294.434
1706146417.340,20.508,20.508,-3.418,-146.484,-732.422
1706146417.344,31.738,28.809,33.691,62.988,-362.305
1706146417.348,27.832,35.156,56.152,192.383,791.504
1706146417.352,15.137,28.809,23.438,1.953,570.801
1706146417.356,30.273,17.090,-5.859,-151.855,-553.223
1706146417.359,40.527,19.531,20.020,7.324,-736.328
1706146417.363,27.832,30.762,51.270,187.988,425.293
1706146417.367,14.648,29.297,35.645,75.195,791.016
1706146417.371,22.949,18.066,-0.977,-122.559,-236.328
1706146417.375,27.344,17.578,13.672,-62.500,-774.414
1706146417.376,15.625,26.855,51.758,143.066,45.410
1706146417.380,11.230,32.227,53.711,134.277,957.520
1706146417.384,21.484,23.438,19.043,-78.613,76.172
1706146417.388,32.715,18.066,10.254,-120.117,-789.551
1706146417.392,27.344,28.320,47.363,92.285,-220.215
1706146417.396,23.926,34.180,63.477,175.781,935.547
1706146417.400,25.879,23.438,22.461,-39.062,376.465
1706146417.403,36.621,18.066,-2.441,-149.902,-720.215
1706146417.407,46.387,27.344,36.621,50.293,-488.770
1706146417.411,34.180,33.203,64.941,193.359,705.078
1706146417.415,22.461,26.855,37.598,26.367,614.258
1706146417.419,26.367,18.066,0.977,-146.484,-492.676
1706146417.421,33.691,23.438,22.949,-14.160,-714.355
1706146417.425,33.203,34.180,58.594,180.664,355.469
1706146417.429,28.320,32.715,44.434,89.355,841.309
1706146417.433,29.785,23.438,10.742,-121.582,-207.520
1706146417.437,36.133,23.926,16.113,-79.590,-816.895
1706146417.441,26.855,36.133,45.898,125.977,-15.625
1706146417.445,15.625,42.480,50.293,132.812,949.707
1706146417.448,19.531,26.855,14.160,-74.219,151.367
1706146417.452,27.344,15.625,0.977,-131.348,-760.254
1706146417.456,22.949,25.879,39.062,77.148,-303.223
1706146417.460,8.301,30.762,56.152,179.688,828.613
1706146417.464,12.207,21.484,24.902,-20.020,399.902
1706146417.481,27.344,16.602,0.488,-150.879,-671.875
1706146417.485,22.461,26.367,31.250,24.414,-537.598
1706146417.489,15.625,33.203,56.152,184.570,635.254
1706146417.493,12.207,31.250,28.809,27.832,666.016
1706146417.497,20.996,22.949,-3.418,-154.785,-458.984
1706146417.501,26.855,25.879,15.625,-31.250,-781.738
1706146417.505,25.391,36.621,51.758,166.504,238.281
1706146417.508,21.973,35.645,48.828,112.305,889.160
1706146417.512,29.297,24.414,9.766,-96.191,-122.559
1706146417.516,46.875,22.949,4.395,-94.727,-793.457
1706146417.520,50.781,35.156,44.434,121.582,-58.105
1706146417.524,41.016,42.969,58.105,171.387,956.055
1706146417.526,38.086,32.715,18.555,-53.711,252.930
1706146417.530,51.758,24.414,-1.465,-139.160,-749.512
1706146417.534,51.270,34.180,38.574,74.707,-378.418
1706146417.538,43.457,42.480,64.453,200.195,837.402
1706146417.542,40.527,33.691,33.203,0.977,494.141
1706146417.546,42.480,21.973,0.977,-152.832,-573.730
1706146417.550,42.969,30.273,24.902,21.973,-562.988
1706146417.553,40.527,40.039,56.641,186.035,537.598
1706146417.557,38.574,34.180,39.062,48.340,728.516
1706146417.561,41.016,21.973,2.441,-144.531,-363.281
1706146417.565,50.293,23.926,17.578,-53.711,-804.199
1706146417.569,43.945,32.227,51.758,153.809,115.234
1706146417.572,36.133,31.250,41.992,112.305,886.230
1706146417.576,46.875,20.508,1.953,-97.168,-38.574
1706146417.580,61.035,20.508,0.488,-108.887,-771.484
1706146417.584,63.477,32.715,41.016,102.539,-137.207
1706146417.588,51.758,37.598,53.711,171.875,898.926
1706146417.592,45.898,27.344,10.254,-52.246,268.066
1706146417.596,51.758,20.996,-8.789,-151.855,-677.734
1706146417.599,55.176,32.227,33.203,60.547,-434.082
1706146417.603,42.969,39.551,55.664,194.336,711.426
1706146417.607,32.227,30.273,23.926,8.301,535.645
1706146417.611,45.898,22.461,-5.371,-154.297,-539.551
1706146417.615,65.430,28.320,18.555,8.301,-672.363
1706146417.616,55.176,38.086,49.805,187.012,394.531
1706146417.620,32.715,38.086,38.086,65.918,758.789
1706146417.624,37.598,28.320,1.953,-131.348,-275.391
1706146417.628,51.270,28.320,11.719,-71.289,-782.227
1706146417.632,51.758,38.086,46.387,129.395,41.016
1706146417.636,43.945,42.480,47.363,125.000,947.266
1706146417.640,34.668,29.785,12.695,-90.332,113.770
1706146417.643,49.805,21.973,0.977,-130.859,-776.367
1706146417.647,68.359,31.250,36.133,79.102,-284.180
1706146417.651,54.688,39.551,57.129,158.691,895.996
1706146417.655,30.762,28.809,24.414,-38.086,402.344
1706146417.659,38.574,17.578,0.977,-145.020,-683.105
1706146417.661,63.965,30.273,34.180,46.875,-486.328
1706146417.665,53.223,37.109,59.082,184.082,705.566
1706146417.669,30.762,28.809,28.809,8.789,628.418
1706146417.673,41.016,24.414,-4.395,-156.738,-470.215
1706146417.677,55.664,29.785,20.508,-14.648,-746.094
1706146417.681,50.781,41.016,49.316,174.316,278.809
1706146417.685,18.555,41.992,42.480,93.750,881.836
1706146417.688,6.348,27.344,9.766,-108.398,-109.863
1706146417.692,20.020,23.438,13.184,-78.613,-771.973
1706146417.696,10.254,35.156,51.270,127.930,-17.578
1706146417.700,-1.465,38.574,56.641,148.926,971.680
1706146417.704,-2.930,23.926,15.137,-66.406,228.516
1706146417.706,14.160,14.648,-3.418,-130.859,-766.602
1706146417.710,30.762,25.879,35.645,84.473,-347.656
1706146417.714,19.531,33.203,58.105,187.012,860.352
1706146417.718,7.324,23.438,20.996,-23.438,491.211
1706146417.722,17.578,17.090,-4.883,-161.621,-631.836
1706146417.726,21.484,27.832,32.227,28.320,-652.344
1706146417.730,14.160,36.133,62.500,196.777,583.984
1706146417.733,13.672,30.273,31.738,32.715,684.082
1706146417.737,18.066,20.020,-4.883,-154.785,-446.777
1706146417.741,25.879,22.461,19.043,-34.668,-734.863
1706146417.745,25.879,31.738,52.734,158.203,270.508
1706146417.749,14.160,32.227,42.969,99.121,893.555
1706146417.751,17.578,22.949,7.324,-108.398,-98.145
1706146417.755,32.227,22.461,3.906,-99.121,-776.367
1706146417.759,28.320,33.691,38.086,113.281,-94.238
1706146417.763,1.465,35.156,49.805,154.785,954.590
1706146417.767,-10.254,23.438,14.160,-55.664,247.070
1706146417.771,3.418,15.625,-2.930,-138.672,-714.355
1706146417.775,15.625,25.879,30.762,59.570,-340.332
1706146417.778,11.230,33.203,56.152,176.270,791.992
1706146417.782,-0.977,25.879,29.785,-17.578,519.531
1706146417.786,11.230,18.555,3.418,-162.598,-581.543
1706146417.790,16.602,24.902,36.133,12.695,-635.254
1706146417.794,12.207,34.668,62.988,182.129,485.840
1706146417.797,5.371,31.250,41.016,55.176,748.535
1706146417.801,4.883,20.996,8.301,-136.719,-329.590
1706146417.805,20.996,25.879,21.973,-57.617,-750.977
1706146417.809,23.438,37.109,54.199,155.273,164.062
1706146417.813,10.742,37.109,50.293,133.789,941.406
1706146417.817,15.625,24.902,12.207,-83.496,-10.742
1706146417.821,31.250,19.043,4.883,-109.863,-801.270
1706146417.824,25.391,29.785,42.480,109.375,-156.738
1706146417.828,22.949,37.598,60.059,180.664,935.547
1706146417.832,24.414,28.320,24.414,-38.086,329.102
1706146417.836,24.902,17.090,5.371,-142.090,-697.266
1706146417.840,26.855,27.832,43.457,55.176,-438.965
1706146417.856,30.762,38.574,68.848,196.777,730.469
1706146417.860,34.180,28.320,38.086,9.766,561.035
1706146417.864,43.457,17.090,-1.465,-162.109,-516.113
1706146417.868,47.852,20.996,22.461,-6.348,-642.090
1706146417.872,40.039,32.715,56.641,179.688,419.922
1706146417.876,34.180,31.250,39.062,69.336,791.504
1706146417.880,31.250,21.484,2.930,-143.555,-258.301
1706146417.883,42.480,24.902,17.090,-86.914,-749.023
1706146417.887,41.016,35.156,53.711,129.883,65.918
1706146417.891,20.020,38.574,56.152,127.930,946.289
1706146417.895,18.066,30.762,18.555,-85.449,44.922
1706146417.899,30.273,22.461,6.348,-125.000,-831.543
1706146417.901,27.344,29.785,41.504,88.379,-241.699
1706146417.905,19.531,37.598,59.570,174.805,875.977
1706146417.909,16.602,27.832,26.367,-31.738,419.434
1706146417.913,21.973,18.555,-0.977,-146.484,-663.574
1706146417.917,31.250,25.391,28.320,44.922,-561.035
1706146417.921,28.320,32.715,54.199,187.012,640.625
1706146417.925,21.484,29.785,31.250,18.555,638.672
1706146417.928,24.414,20.996,0.000,-153.809,-478.516
1706146417.932,26.367,22.949,22.949,-22.949,-756.348
1706146417.936,29.785,31.250,53.223,164.551,302.246
1706146417.940,20.508,29.785,41.992,93.262,861.328
1706146417.944,13.672,20.996,7.812,-113.770,-130.859
1706146417.946,30.762,20.508,9.766,-88.867,-801.270
1706146417.950,30.762,30.762,49.805,130.371,-38.086
1706146417.954,15.625,35.645,57.617,150.391,991.211
1706146417.958,4.395,25.879,18.066,-70.801,179.199
1706146417.962,15.137,17.578,-0.488,-140.137,-774.414
1706146417.966,19.043,29.297,36.133,68.848,-310.059
1706146417.970,7.324,41.504,58.105,172.363,850.098
1706146417.973,8.301,33.691,28.809,-25.879,471.191
1706146417.977,20.996,22.949,0.977,-155.762,-634.766
1706146417.981,32.227,28.320,28.809,26.367,-602.539
1706146417.985,19.531,36.133,58.594,189.453,563.965
1706146417.989,1.953,32.715,33.691,36.133,701.660
1706146417.992,12.207,25.391,4.395,-145.508,-342.773
1706146417.996,33.203,29.785,24.902,-28.320,-712.891
1706146418.000,30.762,36.133,54.688,168.457,238.770
1706146418.004,12.207,32.715,46.387,113.281,900.391
1706146418.008,16.602,21.484,9.277,-94.238,-126.465
1706146418.012,26.367,16.602,6.836,-94.238,-864.258
1706146418.016,25.391,29.785,44.922,115.723,-146.484
1706146418.019,18.555,38.086,58.594,171.875,963.379
1706146418.023,13.184,28.320,18.555,-51.758,271.973
1706146418.027,23.438,21.484,-2.441,-145.020,-716.309
1706146418.031,30.273,32.227,38.086,71.289,-341.309
1706146418.035,25.391,45.410,61.523,195.312,815.918
1706146418.037,15.625,39.551,25.391,-5.859,516.602
1706146418.041,25.391,24.414,-5.371,-166.504,-564.453
1706146418.045,24.902,28.320,23.926,0.977,-626.953
1706146418.049,12.207,34.668,56.152,179.688,482.422
1706146418.053,4.883,28.809,33.203,51.270,787.598
1706146418.057,8.301,17.578,-3.906,-143.555,-291.992
1706146418.061,15.625,19.043,12.695,-69.336,-792.480
1706146418.064,11.719,30.273,45.898,131.348,96.191
1706146418.068,9.277,30.762,47.852,109.863,923.828
1706146418.072,16.602,20.996,16.113,-98.633,19.531
1706146418.076,29.297,17.090,6.836,-113.281,-782.715
1706146418.080,17.578,26.855,40.039,97.656,-163.574
1706146418.081,13.672,35.156,54.688,169.434,951.172
1706146418.085,17.578,22.949,20.508,-40.527,390.137
1706146418.089,15.137,14.160,-3.418,-157.227,-674.805
1706146418.093,16.113,23.438,28.320,48.340,-466.797
1706146418.097,18.555,27.832,54.688,192.871,714.355
1706146418.101,23.438,22.461,24.902,9.277,544.922
1706146418.105,36.133,16.113,-3.906,-149.414,-552.246
1706146418.108,46.387,20.508,22.461,3.418,-703.613
1706146418.112,33.203,28.320,55.176,191.895,365.723
1706146418.116,23.438,28.809,42.969,97.168,802.734
1706146418.120,34.668,20.020,1.953,-105.957,-295.898
1706146418.124,46.875,21.973,9.277,-56.641,-881.348
1706146418.126,48.340,34.180,46.387,152.832,23.438
1706146418.130,37.109,37.598,46.875,151.855,973.145
1706146418.134,25.879,27.344,8.789,-72.754,81.543
1706146418.138,45.898,21.973,-4.395,-120.117,-810.059
1706146418.142,50.781,32.227,31.738,91.797,-237.305
1706146418.146,28.320,36.621,52.246,183.105,903.320
1706146418.150,23.438,31.250,18.555,-27.832,382.812
1706146418.153,43.457,23.926,-3.906,-153.320,-723.633
1706146418.157,47.852,30.762,33.691,40.039,-548.340
1706146418.161,37.109,39.062,58.594,200.684,649.414
1706146418.165,32.227,31.738,30.273,33.691,705.566
1706146418.169,37.109,20.020,-4.883,-150.391,-368.652
1706146418.171,48.828,18.555,13.672,-17.578,-735.352
1706146418.175,49.316,29.785,48.828,172.363,301.758
1706146418.179,47.363,33.691,37.598,93.750,911.621
1706146418.183,53.711,22.461,3.418,-105.957,-115.234
1706146418.187,66.895,17.090,9.277,-80.078,-811.523
1706146418.191,71.777,31.250,45.410,128.418,-46.875
1706146418.195,60.547,41.504,53.711,155.762,957.520
1706146418.198,51.758,28.809,18.066,-62.500,177.734
1706146418.202,59.570,21.484,4.883,-133.789,-770.508
1706146418.206,61.523,30.762,36.133,77.637,-321.777
1706146418.210,46.387,37.598,57.617,190.430,842.285
1706146418.214,40.527,31.738,29.785,-13.672,492.676
1706146418.231,45.898,23.926,2.930,-149.902,-625.488
1706146418.235,47.852,27.832,34.180,40.039,-632.324
1706146418.239,52.734,36.621,62.988,208.008,547.852
1706146418.243,37.109,33.203,41.504,55.176,745.605
1706146418.247,32.715,22.461,2.930,-136.230,-348.145
1706146418.251,50.781,22.949,17.090,-32.715,-803.711
1706146418.255,45.410,35.156,53.223,162.598,164.062
1706146418.258,21.973,36.133,45.898,110.840,933.594
1706146418.262,6.348,20.020,4.395,-105.957,-36.621
1706146418.266,14.648,14.648,2.441,-112.305,-818.848
1706146418.270,19.531,26.367,42.480,102.539,-127.441
1706146418.274,7.812,33.691,56.152,161.133,977.539
1706146418.276,4.395,24.902,18.555,-53.223,283.691
1706146418.280,13.672,15.625,-2.441,-152.344,-809.082
1706146418.284,14.648,27.832,38.086,51.270,-434.570
1706146418.288,10.254,38.574,61.035,173.340,801.758
1706146418.292,1.465,29.297,26.855,-21.484,614.746
1706146418.296,9.766,20.020,-0.977,-172.852,-490.234
1706146418.300,34.668,26.855,29.297,-4.883,-669.434
1706146418.303,32.227,36.621,59.082,174.316,465.332
1706146418.307,2.930,32.227,38.574,54.199,807.129
1706146418.311,1.953,18.066,1.465,-144.043,-246.094
1706146418.315,20.508,19.531,9.277,-65.918,-817.871
1706146418.319,19.043,32.227,44.434,145.996,71.289
1706146418.321,14.160,36.133,49.805,130.371,964.355
1706146418.325,13.672,29.297,15.137,-80.078,5.371
1706146418.329,21.973,26.855,10.254,-108.887,-838.379
1706146418.333,31.250,34.180,46.875,107.910,-196.777
1706146418.337,28.809,38.574,59.082,178.223,931.641
1706146418.341,13.672,26.367,22.461,-38.086,364.746
1706146418.345,20.020,16.602,1.465,-145.020,-655.762
1706146418.348,36.621,28.320,36.133,53.223,-414.551
1706146418.352,25.879,38.086,59.082,189.453,736.328
1706146418.356,7.812,33.203,28.809,6.836,595.703
1706146418.360,15.625,23.438,0.488,-152.344,-544.922
1706146418.364,22.461,26.367,21.484,-3.906,-732.422
1706146418.367,20.020,37.109,47.363,182.129,414.551
1706146418.371,4.883,33.203,38.574,87.402,851.074
1706146418.375,6.348,23.926,7.324,-118.164,-263.184
1706146418.379,28.320,29.297,10.742,-72.266,-881.836
1706146418.383,30.762,38.574,49.316,141.602,-6.348
1706146418.387,11.719,40.039,53.223,145.508,986.328
1706146418.391,4.395,31.738,12.695,-82.031,121.094
1706146418.394,23.438,26.855,4.395,-137.695,-797.363
1706146418.398,23.438,36.621,43.457,79.590,-271.484
1706146418.402,18.555,43.457,58.594,177.734,884.277
1706146418.406,20.508,34.180,23.926,-30.273,462.891
1706146418.410,31.250,22.949,-0.977,-153.809,-662.598
1706146418.411,50.293,34.180,33.203,36.133,-568.359
1706146418.415,53.711,44.434,60.059,191.895,661.621
1706146418.419,31.738,38.574,34.180,30.762,696.289
1706146418.423,23.926,25.391,1.465,-150.879,-417.969
1706146418.427,27.832,27.832,29.785,-21.484,-712.891
1706146418.431,17.090,35.156,69.824,177.246,302.734
1706146418.435,15.625,28.809,60.059,112.793,896.484
1706146418.438,9.766,26.367,19.043,-105.957,-120.117
1706146418.442,0.488,32.715,15.137,-125.977,-803.711
1706146418.446,4.883,46.387,54.199,83.008,-66.895
1706146418.450,-35.645,46.875,63.965,102.051,999.512
1706146418.454,-72.266,42.480,22.461,-145.020,232.910
1706146418.456,-60.547,51.758,4.395,-235.840,-825.684
1706146418.460,-75.684,56.152,41.016,-40.527,-394.043
1706146418.464,-108.398,66.406,58.594,54.199,857.910
1706146418.468,-138.184,65.430,19.043,-182.617,520.996
1706146418.472,-142.090,51.758,-6.836,-337.891,-659.668
1706146418.476,-132.812,65.918,21.973,-158.691,-655.762
1706146418.480,-148.926,83.496,44.922,-2.930,568.848
1706146418.483,-169.922,84.961,13.672,-155.762,746.582
1706146418.487,-163.574,76.660,-22.461,-358.398,-410.156
1706146418.491,-145.996,79.590,-2.930,-257.812,-833.008
1706146418.495,-131.836,97.656,30.762,-27.344,190.918
1706146418.499,-125.488,105.469,24.414,-61.035,953.613
1706146418.502,-121.582,88.379,-17.578,-275.391,-60.059
1706146418.506,-98.633,85.449,-21.973,-257.812,-861.328
1706146418.510,-79.590,102.539,9.766,-31.250,-148.926
1706146418.514,-89.355,103.516,15.625,22.461,966.309
1706146418.518,-90.332,87.891,-15.625,-171.387,353.027
1706146418.522,-63.965,81.543,-37.598,-251.465,-703.125
1706146418.526,-45.410,89.844,-8.301,-42.480,-466.797
1706146418.529,-43.457,97.168,17.090,103.516,742.676
1706146418.533,-40.527,87.891,-10.742,-74.219,573.730
1706146418.537,-23.438,73.730,-43.945,-223.145,-598.145
1706146418.541,-2.930,79.102,-18.555,-55.664,-757.324
1706146418.545,9.766,85.938,10.742,136.230,455.566
1706146418.546,19.531,81.543,-8.789,47.852,797.852
1706146418.550,36.621,66.406,-38.574,-141.602,-250.000
1706146418.554,57.129,62.500,-28.320,-76.172,-760.742
1706146418.558,79.590,68.848,4.395,156.250,70.312
1706146418.562,69.336,62.500,10.254,157.227,976.562
1706146418.566,60.059,43.945,-22.461,-52.734,67.871
1706146418.570,80.078,36.133,-29.785,-82.031,-864.258
1706146418.573,87.891,45.410,14.160,139.648,-237.305
1706146418.577,91.797,48.340,35.156,236.816,968.750
1706146418.581,93.750,25.391,5.859,29.297,374.512
1706146418.585,103.516,11.719,-13.672,-87.402,-668.457
1706146418.589,118.652,25.391,18.555,117.676,-438.965
1706146418.591,125.488,27.344,46.387,271.484,728.027
1706146418.595,111.328,10.254,19.043,94.238,629.395
1706146418.599,94.727,-1.953,-12.695,-78.613,-550.781
1706146418.603,106.445,0.488,18.066,71.777,-774.902
1706146418.607,118.164,6.348,58.105,268.066,356.934
1706146418.611,97.168,0.488,46.875,163.086,872.070
1706146418.615,101.074,-5.371,3.906,-40.039,-192.871
1706146418.618,126.953,-2.441,9.277,17.578,-850.586
1706146418.622,124.023,7.812,53.223,234.863,-7.812
1706146418.626,105.469,12.207,57.129,254.395,995.605
1706146418.630,93.750,-0.488,20.020,32.227,156.250
1706146418.634,109.863,-2.930,6.836,-34.180,-820.801
1706146418.651,126.953,4.883,43.457,185.059,-322.754
1706146418.655,117.188,9.766,62.988,281.738,909.180
1706146418.659,93.750,1.953,23.438,63.965,443.359
1706146418.663,97.168,-6.348,-0.977,-63.965,-651.367
1706146418.667,106.934,3.906,37.109,129.883,-510.742
1706146418.671,101.074,15.625,66.895,282.227,660.645
1706146418.675,86.914,14.648,38.086,114.258,682.129
1706146418.678,78.613,4.883,1.953,-72.754,-437.012
1706146418.682,91.309,7.324,20.508,38.574,-782.715
1706146418.686,92.285,18.555,52.734,230.469,242.188
1706146418.690,67.383,20.996,44.922,159.180,918.457
1706146418.694,62.012,11.230,7.812,-54.688,-127.441
1706146418.696,86.914,8.789,8.301,-40.039,-862.793
1706146418.700,86.914,20.508,43.945,173.340,-78.613
1706146418.704,67.871,25.391,57.617,220.215,-997.559
1706146418.708,65.918,15.137,20.508,1.465,265.625
1706146418.712,83.984,10.254,0.000,-86.914,-774.414
1706146418.716,86.914,23.926,37.109,118.652,-396.484
1706146418.720,72.754,32.715,56.152,231.445,862.305
1706146418.723,53.223,22.949,23.438,28.320,562.500
1706146418.727,56.641,13.672,-3.906,-123.535,-615.723
1706146418.731,66.406,18.555,31.738,52.246,-659.668
1706146418.735,56.152,29.297,64.941,225.586,556.152
1706146418.739,34.668,25.391,35.156,80.078,751.953
1706146418.741,41.016,11.230,0.977,-117.676,-372.559
1706146418.745,64.941,11.230,22.461,-15.137,-832.031
1706146418.749,67.871,22.949,58.594,199.219,123.047
1706146418.753,54.199,26.367,55.664,164.551,958.984
1706146418.757,45.898,14.160,16.602,-60.059,-34.668
1706146418.761,61.523,14.648,9.277,-72.266,-862.793
1706146418.765,62.988,27.344,46.875,145.508,-141.113
1706146418.768,49.316,30.762,59.570,201.660,968.750
1706146418.772,37.109,19.531,21.484,-17.090,309.082
1706146418.776,36.133,13.184,1.953,-116.211,-689.941
1706146418.780,38.086,25.391,35.156,89.844,-411.621
1706146418.784,44.922,34.668,57.617,234.863,774.414
1706146418.786,34.180,23.438,33.203,42.480,609.375
1706146418.790,14.648,10.254,6.836,-133.301,-574.219
1706146418.794,25.391,17.090,30.762,23.438,-746.094
1706146418.798,32.227,25.879,57.129,199.219,430.176
1706146418.802,21.484,26.855,43.945,82.520,804.199
1706146418.806,28.320,16.113,10.742,-114.258,-291.504
1706146418.810,40.039,11.230,20.020,-48.828,-767.090
1706146418.813,29.785,22.949,53.711,162.598,141.602
1706146418.817,10.742,24.414,53.223,149.902,979.004
1706146418.821,5.371,14.648,17.578,-68.359,40.527
1706146418.825,19.043,14.160,5.371,-103.516,-833.008
1706146418.829,18.555,23.926,40.039,104.004,-204.102
1706146418.832,4.883,31.738,58.594,187.012,940.430
1706146418.836,3.906,27.344,25.391,-30.273,395.508
1706146418.840,12.695,19.531,-0.977,-158.691,-705.078
1706146418.844,20.508,25.879,32.227,44.434,-523.926
1706146418.848,13.672,33.203,58.594,199.219,716.309
1706146418.852,0.977,25.391,30.273,20.996,636.719
1706146418.856,16.113,15.625,1.465,-158.203,-505.859
1706146418.859,33.203,20.508,26.367,-21.484,-760.254
1706146418.863,32.227,31.738,63.965,176.270,322.754
1706146418.867,17.578,34.180,50.781,96.680,875.977
1706146418.871,17.578,20.508,7.324,-105.469,-229.004
1706146418.875,34.668,18.066,12.695,-67.383,-917.969
1706146418.876,33.203,30.762,49.316,144.531,-26.367
1706146418.880,28.809,38.574,50.781,164.062,-974.609
1706146418.884,34.180,30.273,13.672,-54.688,170.898
1706146418.888,39.551,22.949,1.953,-123.535,-770.996
1706146418.892,38.086,33.203,36.621,90.820,-244.141
1706146418.896,29.785,39.062,55.176,208.496,915.039
1706146418.900,24.902,31.738,20.508,0.488,466.309
1706146418.903,41.016,23.926,-3.906,-145.996,-584.473
1706146418.907,48.340,29.785,31.250,42.969,-496.094
1706146418.911,32.715,41.992,59.082,208.008,626.465
1706146418.915,20.996,37.109,33.203,47.852,703.613
1706146418.919,22.949,24.414,-5.859,-144.531,-401.855
1706146418.921,30.273,30.273,11.719,-35.645,-758.301
1706146418.925,26.855,40.527,48.340,167.969,239.258
1706146418.929,20.020,41.504,41.992,109.863,923.828
1706146418.933,30.273,29.297,4.395,-100.586,-112.793
1706146418.937,44.922,22.461,4.883,-92.285,-841.797
1706146418.941,44.434,31.738,40.039,118.164,-79.590
1706146418.945,32.227,38.574,45.898,162.598,973.145
1706146418.948,35.156,31.250,11.719,-57.617,209.473
1706146418.952,46.387,25.879,-4.395,-140.137,-760.254
1706146418.956,45.898,36.133,26.855,72.266,-367.676
1706146418.960,35.645,45.410,46.875,188.477,817.871
1706146418.964,19.531,38.086,17.090,-2.441,562.012
1706146418.982,27.344,28.320,-10.254,-145.508,-562.500
1706146418.986,40.039,35.156,17.090,19.531,-668.457
1706146418.990,42.480,41.504,49.316,183.105,481.934
1706146418.994,28.809,37.109,34.668,51.270,783.691
1706146418.998,25.391,28.320,-2.930,-142.090,-316.895
1706146419.002,40.527,31.250,6.348,-57.129,-791.992
1706146419.006,35.645,44.434,41.992,148.926,145.996
1706146419.009,14.648,47.852,43.457,113.281,941.406
1706146419.013,10.254,33.691,1.465,-106.445,-12.695
1706146419.017,25.879,27.344,-5.371,-120.605,-837.891
1706146419.021,32.227,39.062,34.180,96.680,-178.711
1706146419.025,23.438,41.992,47.852,162.598,983.887
1706146419.026,20.508,27.344,13.184,-49.805,291.504
1706146419.030,26.855,21.484,-6.348,-145.020,-801.270
1706146419.034,27.832,30.762,31.250,54.199,-411.621
1706146419.038,20.996,38.086,53.711,187.500,806.641
1706146419.042,13.672,28.320,24.902,4.395,633.789
1706146419.046,12.695,12.207,-1.953,-150.391,-493.652
1706146419.050,16.113,16.602,22.949,4.883,-692.383
1706146419.053,17.578,29.785,50.781,169.922,409.180
1706146419.057,6.836,28.809,38.086,62.988,814.453
1706146419.061,5.371,16.113,0.488,-137.207,-328.125
1706146419.065,12.695,17.578,8.301,-81.055,-927.246
1706146419.069,16.602,29.785,48.340,132.812,16.113
1706146419.071,6.836,31.250,48.340,132.324,943.359
1706146419.075,10.742,21.973,8.789,-74.219,77.148
1706146419.079,31.250,20.020,-1.953,-116.699,-791.992
1706146419.083,26.367,32.715,37.109,89.844,-256.348
1706146419.087,21.973,39.551,53.711,178.223,920.898
1706146419.091,21.484,29.785,13.184,-40.039,382.324
1706146419.095,27.344,22.949,-10.742,-168.457,-725.098
1706146419.098,28.809,32.715,25.879,28.809,-560.059
1706146419.102,22.461,39.062,49.805,185.547,633.301
1706146419.106,19.043,31.738,21.484,16.113,646.973
1706146419.110,28.320,24.414,-6.836,-158.691,-424.805
1706146419.114,30.762,25.879,19.531,-13.184,-767.090
1706146419.116,15.625,35.645,51.270,178.711,293.945
1706146419.120,5.859,37.109,40.039,90.332,889.160
1706146419.124,20.020,20.996,4.395,-120.117,-174.805
1706146419.128,37.598,19.043,6.836,-89.844,-879.395
1706146419.132,20.996,30.273,44.922,127.441,-73.242
1706146419.136,12.695,32.715,55.664,148.926,983.887
1706146419.140,19.043,22.949,20.508,-64.941,149.902
1706146419.143,26.367,17.578,7.812,-133.301,-799.805
1706146419.147,35.645,25.879,42.969,73.242,-293.945
1706146419.151,35.156,34.668,60.059,187.012,878.418
1706146419.155,28.320,28.320,26.367,-16.602,479.980
1706146419.159,22.949,18.066,-2.441,-153.320,-612.793
1706146419.161,24.902,26.855,27.344,41.016,-583.008
1706146419.165,26.367,40.039,56.152,199.219,615.234
1706146419.169,11.230,32.227,37.598,34.180,710.449
1706146419.173,13.184,19.043,4.883,-143.066,-435.547
1706146419.177,41.016,21.484,20.996,-31.250,-818.848
1706146419.181,43.945,29.297,56.152,168.457,175.293
1706146419.185,21.484,33.203,49.805,113.281,916.504
1706146419.188,18.555,21.973,8.301,-102.539,-141.113
1706146419.192,37.598,16.113,6.348,-93.262,-873.535
1706146419.196,26.855,27.832,46.875,121.094,-75.195
1706146419.200,-2.441,29.785,59.082,156.738,-974.121
1706146419.204,-5.371,19.531,21.484,-63.477,276.855
1706146419.206,14.160,13.184,-1.465,-142.578,-739.258
1706146419.210,22.461,23.438,33.203,69.336,-341.309
1706146419.214,14.160,33.203,57.129,191.406,826.172
1706146419.218,7.324,26.367,25.879,-7.812,530.762
1706146419.222,11.719,20.020,-2.930,-160.156,-592.285
1706146419.226,27.344,27.344,21.973,13.184,-675.293
1706146419.230,19.531,34.668,51.758,183.594,497.070
1706146419.233,4.883,30.762,34.180,41.992,743.164
1706146419.237,9.277,23.438,0.488,-153.809,-384.277
1706146419.241,22.949,22.461,13.184,-58.594,-837.891
1706146419.245,29.297,31.738,46.387,150.879,116.211
1706146419.249,19.531,34.668,47.852,125.977,961.914
1706146419.251,20.508,21.484,13.184,-92.773,-8.789
1706146419.255,41.504,20.508,5.371,-110.352,-841.309
1706146419.259,33.203,31.250,41.992,104.492,-161.133
1706146419.263,21.484,35.156,57.617,173.340,970.215
1706146419.267,25.391,28.320,23.438,-35.156,357.422
1706146419.271,40.527,21.973,3.906,-140.137,-731.445
1706146419.275,50.293,29.785,34.180,62.988,-486.816
1706146419.278,41.504,36.133,55.176,194.824,754.395
1706146419.282,20.996,29.785,33.203,14.648,621.582
1706146419.286,10.742,21.973,4.883,-145.508,-531.738
1706146419.290,21.973,25.879,28.809,0.977,-709.473
1706146419.294,33.203,35.156,61.523,184.570,425.781
1706146419.296,33.691,36.621,43.457,78.125,845.215
1706146419.300,34.668,24.414,3.418,-133.301,-275.879
1706146419.304,44.922,23.926,12.207,-83.496,-875.000
1706146419.308,43.945,39.551,48.340,131.348,16.602
1706146419.312,37.598,43.945,51.758,133.301,988.770
1706146419.316,34.180,30.762,10.742,-83.496,104.004
1706146419.320,31.738,24.414,-2.441,-131.348,-826.172
1706146419.323,38.574,37.598,37.109,86.914,-258.301
1706146419.327,41.016,44.922,56.152,181.641,933.594
1706146419.331,28.809,34.180,21.484,-37.109,425.293
1706146419.335,35.645,28.320,-4.395,-166.504,-708.496
1706146419.339,41.992,38.574,31.738,42.480,-597.656
1706146419.341,31.250,45.898,61.035,200.684,652.344
1706146419.345,13.672,41.992,32.227,33.203,676.270
1706146419.349,20.508,34.668,-0.488,-136.719,-460.938
1706146419.353,40.527,35.156,20.508,-12.207,-772.461
1706146419.357,32.227,44.434,56.641,179.199,306.641
1706146419.361,17.578,42.480,44.922,100.586,904.785
1706146419.365,23.926,27.344,7.324,-104.004,-142.578
1706146419.368,33.203,26.367,14.160,-76.660,-860.352
1706146419.372,29.297,36.621,48.340,123.047,-88.379
1706146419.376,27.832,36.621,56.152,145.020,986.328
1706146419.380,24.902,25.391,19.531,-70.801,155.273
1706146419.384,20.996,21.484,2.930,-150.879,-861.816
1706146419.401,23.926,32.715,41.016,65.918,-345.703
1706146419.405,20.996,40.527,61.035,188.477,872.070
1706146419.409,15.137,31.738,27.344,-19.531,485.352
1706146419.413,18.555,21.484,3.418,-162.598,-584.473
1706146419.417,26.367,27.344,34.180,20.996,-553.711
1706146419.421,26.855,36.621,59.570,189.941,592.285
1706146419.425,21.484,34.668,36.621,32.715,752.930
1706146419.428,28.809,24.414,2.930,-165.039,-346.680
1706146419.432,38.086,23.438,16.602,-43.457,-790.039
1706146419.436,26.367,34.668,45.898,165.527,167.969
1706146419.440,8.301,37.109,43.945,109.863,933.594
1706146419.444,7.324,28.320,7.324,-93.262,-98.145
1706146419.447,32.227,27.344,4.883,-101.562,-861.816
1706146419.451,44.922,39.551,43.945,111.328,-103.516
1706146419.455,25.391,42.969,54.688,158.203,993.652
1706146419.459,22.461,31.250,18.066,-68.359,264.648
1706146419.463,44.434,22.461,1.465,-146.973,-804.688
1706146419.467,49.805,29.785,38.086,67.871,-427.246
1706146419.471,39.062,36.621,59.082,193.848,827.637
1706146419.474,33.691,32.715,21.973,-9.277,580.566
1706146419.478,31.250,26.855,-12.207,-180.664,-493.652
1706146419.482,35.645,32.715,19.043,-4.395,-595.703
1706146419.486,31.250,42.969,53.711,173.340,465.332
1706146419.490,15.137,38.086,36.133,49.316,766.602
1706146419.492,21.484,24.902,0.000,-145.508,-307.617
1706146419.496,36.621,27.832,9.277,-61.523,-785.156
1706146419.500,31.250,38.086,47.363,159.668,131.836
1706146419.504,4.883,40.039,48.828,119.629,975.586
1706146419.508,2.930,29.785,6.348,-107.910,45.410
1706146419.512,17.090,22.461,-0.488,-123.535,-839.355
1706146419.516,13.184,32.227,39.062,87.402,-233.398
1706146419.519,14.648,41.504,54.199,161.133,969.238
1706146419.523,18.066,34.180,19.043,-39.551,369.629
1706146419.527,21.973,25.391,0.000,-145.996,-749.023
1706146419.531,31.250,33.691,34.668,49.805,-446.289
1706146419.535,33.203,40.039,57.617,187.500,770.508
1706146419.536,20.996,31.738,28.809,17.578,629.395
1706146419.540,25.879,20.996,-0.977,-142.090,-488.281
1706146419.544,27.832,24.902,23.926,2.930,-732.910
1706146419.548,7.324,34.180,55.176,182.617,390.137
1706146419.552,-9.766,31.738,37.109,68.359,849.609
1706146419.556,-2.930,19.531,1.953,-125.977,-282.227
1706146419.560,13.672,16.602,14.648,-74.707,-878.906
1706146419.563,11.230,29.785,47.363,127.930,9.277
1706146419.567,5.371,37.109,43.457,127.441,965.332
1706146419.571,23.438,22.949,12.207,-74.219,127.441
1706146419.575,29.785,11.230,13.184,-117.188,-722.168
1706146419.579,3.418,21.973,47.852,74.219,-216.309
1706146419.581,-22.461,25.879,61.035,160.645,916.992
1706146419.585,-15.625,15.625,26.855,-28.809,439.941
1706146419.589,6.348,14.648,0.488,-152.832,-652.832
1706146419.593,-3.906,26.855,31.250,6.836,-545.410
1706146419.597,-19.531,29.297,56.641,162.598,650.879
1706146419.601,-22.461,20.508,26.367,3.906,646.484
1706146419.605,-20.020,11.230,-4.883,-164.551,-458.984
1706146419.608,-9.766,16.113,15.137,-31.250,-718.750
1706146419.612,-6.836,28.320,46.387,149.414,264.648
1706146419.616,-20.996,27.344,40.039,68.848,892.578
1706146419.620,-11.719,18.555,0.977,-127.441,-158.691
1706146419.624,3.906,17.090,5.371,-98.145,-847.656
1706146419.626,1.465,31.250,43.945,116.699,-45.898
1706146419.630,-6.836,35.645,52.734,158.691,965.332
1706146419.634,0.488,23.438,16.602,-56.152,176.758
1706146419.638,22.949,19.531,0.977,-141.602,-800.293
1706146419.642,23.926,32.227,38.574,68.359,-319.824
1706146419.646,12.207,38.086,59.082,187.012,884.766
1706146419.650,17.578,32.227,25.391,-14.160,536.621
1706146419.653,29.785,21.973,-2.930,-167.480,-616.699
1706146419.657,21.484,27.344,30.762,9.766,-642.578
1706146419.661,10.742,36.133,58.594,186.523,553.223
1706146419.665,5.371,29.297,33.203,42.969,731.934
1706146419.669,11.719,16.602,1.465,-143.555,-380.859
1706146419.671,27.832,16.602,18.555,-30.273,-799.316
1706146419.675,25.391,28.809,52.734,165.039,187.012
1706146419.679,0.488,28.809,49.316,101.562,917.480
1706146419.683,-3.418,17.090,14.648,-106.934,-66.406
1706146419.687,21.484,17.578,12.207,-101.074,-814.453
1706146419.691,17.090,30.762,46.875,114.258,-127.441
1706146419.695,1.465,34.668,56.641,171.875,944.336
1706146419.698,7.812,21.973,21.484,-48.828,270.020
1706146419.702,16.602,14.648,4.883,-129.395,-744.141
1706146419.706,19.043,20.996,40.039,78.125,-428.223
1706146419.710,20.020,28.809,62.500,185.059,779.785
1706146419.714,19.043,25.879,31.738,-9.766,558.594
1706146419.717,23.438,16.602,6.836,-160.156,-580.566
1706146419.721,26.855,17.578,39.062,0.000,-709.961
1706146419.725,15.137,29.785,66.895,172.363,443.359
1706146419.729,-4.395,28.320,44.922,52.246,816.406
1706146419.733,6.836,15.625,8.301,-136.719,-308.594
1706146419.737,19.043,16.113,17.578,-48.828,-860.840
1706146419.741,12.695,27.832,50.293,149.414,65.430
1706146419.744,9.766,33.203,51.758,128.418,960.449
1706146419.748,6.348,23.438,14.160,-77.637,25.391
1706146419.752,34.668,25.391,-1.465,-104.980,-799.805
1706146419.756,61.523,35.645,42.969,128.906,-148.438
1706146419.760,33.203,31.250,70.312,207.520,969.238
1706146419.776,4.883,19.531,31.738,-34.668,379.883
1706146419.780,6.348,6.348,5.859,-150.391,-747.070
1706146419.784,4.395,7.324,47.852,35.645,-542.969
1706146419.788,-13.672,13.184,82.520,171.875,710.449
1706146419.792,-34.180,3.418,53.711,0.000,651.367
1706146419.796,-35.156,-11.719,20.508,-182.129,-475.586
1706146419.800,-16.113,-8.301,49.805,-40.527,-726.074
1706146419.803,-29.297,1.953,93.750,147.949,350.586
1706146419.807,-56.152,-6.836,83.984,50.293,875.488
1706146419.811,-44.922,-22.461,46.387,-157.227,-168.945
1706146419.815,-34.180,-20.996,56.152,-114.746,-832.520
1706146419.819,-33.691,-14.160,92.285,102.539,-17.578
1706146419.821,-45.410,-18.555,90.332,111.816,982.422
1706146419.825,-46.387,-29.785,49.316,-102.051,117.676
1706146419.829,-31.738,-35.156,41.016,-158.691,-810.547
1706146419.833,-33.203,-23.926,87.402,53.711,-235.840
1706146419.837,-41.992,-13.184,107.910,154.297,932.617
1706146419.841,-42.480,-21.484,71.289,-60.547,464.355
1706146419.845,-37.598,-29.297,49.316,-184.570,-606.445
1706146419.848,-35.156,-19.043,79.102,14.648,-512.695
1706146419.852,-35.156,-13.672,97.656,176.270,653.320
1706146419.856,-30.273,-17.090,78.125,11.230,677.734
1706146419.860,-19.043,-22.461,56.152,-158.203,-481.445
1706146419.864,-15.625,-20.996,73.730,-41.992,-833.496
1706146419.866,-20.996,-9.277,100.098,143.555,247.070
1706146419.870,-28.809,-5.371,87.891,92.285,917.480
1706146419.874,-23.438,-17.578,49.316,-111.816,-143.555
1706146419.878,-0.977,-21.484,56.152,-104.492,-881.348
1706146419.882,6.836,-7.324,93.262,109.863,-83.496
1706146419.886,8.789,-0.488,99.121,167.969,986.328
1706146419.890,17.090,-7.812,65.430,-45.410,206.543
1706146419.893,17.578,-9.766,47.852,-130.371,-749.023
1706146419.897,13.672,1.953,76.660,87.891,-330.078
1706146419.901,13.184,7.324,95.215,208.984,821.777
1706146419.905,12.207,1.465,62.012,9.277,521.484
1706146419.909,29.785,-0.977,29.785,-132.324,-598.633
1706146419.911,35.645,8.789,55.664,38.086,-696.777
1706146419.915,36.133,17.578,82.031,203.125,507.812
1706146419.919,41.992,12.207,60.547,80.078,788.086
1706146419.923,54.199,3.906,27.344,-91.797,-367.676
1706146419.927,65.430,9.277,39.062,-0.488,-793.457
1706146419.931,56.641,20.996,77.148,198.242,209.961
1706146419.935,44.434,23.438,72.266,147.461,946.289
1706146419.938,54.688,15.625,22.461,-70.801,13.184
1706146419.942,61.523,13.672,12.695,-77.148,-802.246
1706146419.946,51.270,23.438,52.734,136.719,-169.922
1706146419.950,50.293,31.250,66.895,197.266,975.098
1706146419.954,45.898,24.414,29.297,-10.742,337.402
1706146419.957,41.504,18.066,9.277,-98.145,-732.910
1706146419.961,27.832,23.926,44.434,101.562,-450.684
1706146419.965,19.531,30.762,63.965,227.539,800.781
1706146419.969,20.996,20.996,31.738,34.180,574.707
1706146419.973,24.902,11.230,3.906,-122.070,-559.082
1706146419.977,44.922,20.508,33.203,23.926,-672.852
1706146419.981,51.758,31.738,64.453,198.242,452.637
1706146419.984,34.180,30.273,42.969,95.215,779.785
1706146419.988,40.527,16.113,4.395,-95.703,-340.820
1706146419.992,55.176,17.578,15.137,-32.715,-835.449
1706146419.996,48.828,29.785,51.758,165.039,83.984
1706146420.000,44.434,31.250,54.688,160.156,954.590
1706146420.001,56.641,22.461,16.113,-47.363,34.668
1706146420.005,69.824,19.043,8.301,-90.820,-852.539
1706146420.009,66.406,27.344,50.293,125.488,-259.766
1706146420.013,45.410,33.203,65.430,211.426,927.734
1706146420.017,48.340,21.973,28.320,-15.137,421.875
1706146420.021,70.312,11.719,7.324,-131.836,-681.641
1706146420.025,61.523,21.484,40.039,75.195,-487.305
1706146420.028,55.664,31.250,62.500,224.121,723.633
1706146420.032,53.223,26.855,34.180,44.922,647.949
1706146420.036,54.688,18.555,-0.977,-134.277,-451.172
1706146420.040,65.918,23.926,16.113,0.977,-707.520
1706146420.044,52.246,34.668,49.316,190.918,355.469
1706146420.046,44.922,35.156,40.039,99.609,863.281
1706146420.050,60.547,23.438,2.930,-115.234,-211.914
1706146420.054,67.383,20.508,8.301,-59.082,-867.676
1706146420.058,53.223,32.715,47.852,166.016,-37.109
1706146420.062,48.340,35.645,55.176,172.363,-989.258
1706146420.066,52.246,24.414,16.602,-46.875,185.059
1706146420.070,56.152,19.531,1.465,-112.793,-784.180
1706146420.073,54.199,30.273,39.062,92.773,-290.527
1706146420.077,39.551,39.062,58.594,198.242,901.855
1706146420.081,33.691,28.809,20.508,-2.930,466.309
1706146420.085,55.176,19.043,-11.230,-137.695,-676.270
1706146420.089,66.895,29.297,21.973,46.387,-617.676
1706146420.091,57.617,39.551,52.734,203.613,611.816
1706146420.095,54.199,33.203,27.832,45.410,711.914
1706146420.099,49.805,20.996,-0.977,-133.301,-438.965
1706146420.103,28.320,20.508,20.508,-18.555,-805.176
1706146420.107,18.066,28.809,54.688,178.711,250.488
1706146420.111,25.391,29.297,41.504,120.605,926.270
1706146420.115,31.250,16.602,0.977,-102.539,-125.488
1706146420.118,44.922,14.648,4.395,-102.051,-870.605
1706146420.122,39.551,26.855,44.434,122.070,-99.609
1706146420.126,22.461,29.297,55.664,164.551,-998.047
1706146420.130,19.531,19.531,17.578,-45.898,255.371
1706146420.134,40.039,15.625,1.465,-120.117,-774.902
1706146420.151,41.992,25.391,35.156,82.520,-345.215
1706146420.155,21.484,33.203,54.199,197.754,876.953
1706146420.159,4.883,20.996,24.902,-10.254,560.547
1706146420.163,11.719,4.883,0.000,-160.645,-611.328
1706146420.167,30.762,13.672,33.203,29.297,-645.508
1706146420.171,28.320,41.992,52.734,199.219,521.484
1706146420.175,7.324,48.340,17.090,41.016,733.887
1706146420.178,3.906,30.273,-17.090,-168.945,-339.844
1706146420.182,19.531,31.250,-1.465,-76.172,-825.684
1706146420.186,4.395,45.898,30.762,128.906,114.746
1706146420.190,-11.230,50.781,25.879,82.520,965.332
1706146420.194,8.301,44.434,-13.184,-121.094,0.977
1706146420.212,21.484,43.945,-25.391,-149.902,-774.902
1706146420.216,21.484,53.711,11.230,44.922,-99.121
1706146420.220,17.578,59.570,26.855,123.047,995.605
1706146420.224,20.996,55.176,-16.602,-86.914,310.059
1706146420.228,31.250,47.852,-44.434,-198.242,-752.441
1706146420.232,37.109,55.176,-6.348,13.672,-395.020
1706146420.236,30.273,69.336,16.602,158.203,782.227
1706146420.239,19.531,65.430,-17.578,-34.180,599.121
1706146420.243,36.621,56.152,-52.734,-198.242,-582.031
1706146420.247,59.082,59.082,-22.461,-35.645,-754.883
1706146420.251,58.105,77.148,11.230,142.090,442.383
1706146420.255,42.480,79.590,-12.695,30.273,861.816
1706146420.242,56.641,63.965,-48.340,-147.461,-235.840
1706146420.246,76.172,66.406,-39.062,-82.520,-834.473
1706146420.250,82.031,75.195,0.977,125.977,61.035
1706146420.254,77.637,72.266,7.324,138.184,990.723
1706146420.258,77.148,63.965,-26.855,-73.242,101.074
1706146420.262,85.449,65.918,-40.527,-131.348,-855.469
1706146420.266,87.402,74.707,-3.418,74.707,-292.480
1706146420.269,86.426,76.172,17.090,175.781,945.312
1706146420.273,83.496,67.383,-19.531,-20.508,438.477
1706146420.277,72.754,58.105,-42.480,-139.648,-644.043
1706146420.281,66.895,62.500,-6.348,47.852,-517.578
1706146420.285,67.871,69.336,18.066,198.242,663.574
1706146420.286,49.805,58.105,-10.742,25.879,637.695
1706146420.290,42.480,45.898,-40.039,-171.387,-516.113
1706146420.294,71.777,49.805,-10.254,-37.109,-801.270
1706146420.298,68.848,55.664,27.832,172.852,311.035
1706146420.302,45.410,50.781,17.578,90.820,865.723
1706146420.306,53.223,36.621,-21.484,-123.047,-203.613
1706146420.310,70.312,33.203,-16.113,-76.660,-855.957
1706146420.313,72.266,44.434,22.461,140.625,-56.152
1706146420.317,54.688,50.781,28.320,143.555,975.098
1706146420.321,45.898,37.109,-2.930,-77.637,163.086
1706146420.325,54.688,26.855,-12.207,-124.512,-806.641
1706146420.329,57.617,40.527,25.391,90.820,-290.039
1706146420.332,47.363,46.387,41.504,193.359,882.324
1706146420.336,37.598,34.668,9.766,-14.160,476.074
1706146420.340,42.480,28.809,-13.184,-143.555,-666.504
1706146420.344,59.082,37.109,20.020,41.504,-645.996
1706146420.348,43.457,45.898,51.758,198.730,607.910
1706146420.352,20.996,39.551,26.855,54.199,727.539
1706146420.356,29.297,30.762,-3.906,-137.695,-419.434
1706146420.359,42.969,33.691,12.207,-29.785,-816.895
1706146420.363,40.527,43.457,44.922,165.039,211.914
1706146420.367,30.273,43.457,41.992,105.469,949.707
1706146420.371,26.367,31.738,1.465,-103.027,-45.898
1706146420.375,26.855,33.203,-3.906,-93.262,-834.961
1706146420.376,30.762,43.457,37.109,127.441,-113.281
1706146420.380,25.879,42.969,49.316,179.199,-987.793
1706146420.384,30.762,32.227,13.672,-32.227,275.391
1706146420.388,44.922,24.414,1.465,-123.535,-812.012
1706146420.392,44.922,32.715,37.109,84.473,-409.668
1706146420.396,42.969,41.016,54.199,209.961,852.539
1706146420.400,45.898,31.250,20.996,10.254,549.316
1706146420.403,47.363,19.531,-8.301,-142.090,-576.172
1706146420.407,49.805,28.809,21.484,29.785,-671.387
1706146420.411,39.551,38.086,54.199,201.172,506.348
1706146420.415,18.066,33.203,30.273,69.336,782.715
1706146420.419,17.578,22.949,-6.348,-129.883,-375.000
1706146420.422,34.668,25.879,10.254,-44.922,-807.617
1706146420.426,23.438,36.621,43.457,163.086,147.949
1706146420.430,-2.441,35.156,39.062,123.535,945.312
1706146420.434,4.883,26.855,2.441,-108.398,-10.254
1706146420.438,22.461,24.902,-0.488,-125.488,-842.773
1706146420.442,13.184,30.273,37.598,99.121,-187.012
1706146420.446,-5.859,37.109,46.875,170.410,950.684
1706146420.449,-0.488,27.344,13.672,-47.363,295.898
1706146420.453,14.160,18.555,-3.906,-166.016,-769.531
1706146420.457,22.949,25.879,30.273,38.574,-474.609
1706146420.461,17.090,33.691,56.152,192.871,757.324
1706146420.465,5.859,25.391,28.320,10.742,591.797
1706146420.466,9.766,15.137,-3.418,-160.156,-581.055
1706146420.470,16.602,22.949,19.043,-11.230,-746.094
1706146420.474,15.625,32.715,47.363,183.594,404.297
1706146420.478,-0.488,27.344,35.156,81.055,854.004
1706146420.482,0.977,14.648,4.883,-134.277,-253.418
1706146420.486,23.926,17.578,9.766,-78.613,-819.824
1706146420.490,29.785,31.250,43.457,135.254,38.086
1706146420.493,13.672,40.039,50.293,128.418,969.727
1706146420.497,6.836,29.297,10.254,-84.473,125.000
1706146420.501,22.949,23.438,-0.488,-124.512,-773.926
1706146420.505,36.621,37.598,40.527,92.773,-213.867
1706146420.509,27.344,39.062,58.105,187.500,949.707
1706146420.526,16.602,27.832,24.414,-17.578,469.238
1706146420.530,28.320,27.832,-0.488,-141.602,-645.020
1706146420.534,39.062,36.621,30.273,49.316,-524.414
1706146420.538,39.062,40.039,56.641,210.449,698.730
1706146420.542,27.832,31.738,31.738,39.551,694.336
1706146420.546,25.879,18.066,0.977,-149.414,-482.422
1706146420.550,48.340,24.902,20.508,-21.484,-764.160
1706146420.553,51.270,39.551,53.711,170.898,325.684
1706146420.557,34.668,36.133,44.922,88.867,875.977
1706146420.561,37.109,22.949,5.371,-109.863,-153.809
1706146420.565,55.664,20.020,10.254,-77.637,-787.598
1706146420.569,60.547,30.273,47.363,124.023,-10.254
1706146420.586,47.852,32.715,52.246,162.109,-988.281
1706146420.590,37.598,21.973,14.160,-58.105,197.266
1706146420.594,38.086,14.648,-6.348,-143.066,-835.449
1706146420.598,33.203,24.902,31.250,82.520,-330.078
1706146420.602,20.020,30.273,52.734,191.895,895.508
1706146420.606,14.160,20.508,20.508,-24.414,478.027
1706146420.610,25.879,12.695,-4.395,-154.297,-665.527
1706146420.613,30.273,20.020,31.738,39.062,-630.859
1706146420.617,24.902,27.832,61.035,187.988,592.773
1706146420.621,17.578,21.973,35.645,27.832,708.008
1706146420.625,2.930,12.695,6.836,-153.320,-410.156
1706146420.629,4.883,19.043,20.996,-38.574,-787.598
1706146420.616,20.996,33.203,51.758,166.992,227.539
1706146420.620,10.254,33.203,46.875,109.863,940.430
1706146420.624,3.906,24.414,8.301,-111.816,-49.316
1706146420.628,20.508,25.879,2.441,-115.723,-859.863
1706146420.632,23.926,39.062,37.109,106.934,-157.227
1706146420.636,6.348,41.992,52.246,159.668,984.375
1706146420.640,4.883,29.785,15.625,-61.523,285.156
1706146420.643,22.949,22.461,-3.418,-143.555,-761.719
1706146420.647,25.879,30.762,34.180,59.082,-410.645
1706146420.651,20.996,35.645,58.105,182.129,820.312
1706146420.655,6.836,25.391,28.809,-2.930,566.895
1706146420.659,5.859,16.113,1.953,-154.297,-578.613
1706146420.662,25.391,22.461,29.785,17.578,-683.105
1706146420.666,25.879,32.227,59.570,194.824,479.980
1706146420.670,14.648,27.344,42.969,55.176,819.824
1706146420.674,32.715,14.160,5.859,-145.020,-244.141
1706146420.678,50.781,13.672,16.602,-52.734,-768.555
1706146420.682,46.875,28.320,54.199,153.809,98.145
1706146420.686,12.695,34.180,53.223,131.836,946.777
1706146420.689,2.441,25.391,15.137,-76.660,23.438
1706146420.693,20.996,20.508,8.301,-111.816,-851.562
1706146420.697,19.043,30.273,45.410,95.703,-220.215
1706146420.701,9.766,39.062,57.129,161.133,954.102
1706146420.705,10.254,33.203,15.625,-59.082,345.215
1706146420.706,21.484,28.320,-5.859,-157.715,-742.676
1706146420.710,27.344,36.133,32.227,48.828,-479.004
1706146420.714,31.250,43.457,58.105,186.523,733.398
1706146420.718,18.066,36.133,26.855,13.672,599.609
1706146420.722,18.555,26.855,-0.977,-153.809,-523.438
1706146420.726,37.109,30.273,30.762,-11.230,-746.094
1706146420.730,31.738,34.180,58.594,161.621,372.559
1706146420.733,12.695,34.668,39.551,64.941,831.055
1706146420.737,11.719,25.879,4.883,-129.395,-298.340
1706146420.741,25.879,21.484,12.695,-89.355,-872.559
1706146420.745,32.227,30.762,46.387,122.559,32.715
1706146420.749,25.879,36.133,50.293,135.254,985.352
1706146420.751,18.555,26.367,8.789,-78.613,113.281
1706146420.755,30.762,20.508,-4.395,-126.953,-798.828
1706146420.759,37.598,29.785,39.551,84.473,-248.047
1706146420.763,25.391,35.156,55.176,170.898,912.109
1706146420.767,6.348,27.344,22.461,-35.645,399.902
1706146420.771,22.461,24.414,3.906,-161.621,-635.742
1706146420.775,35.645,31.250,30.762,4.883,-480.957
1706146420.778,6.348,34.180,53.711,153.320,614.746
1706146420.782,-17.090,22.949,36.133,-0.488,659.180
1706146420.786,-6.348,14.648,2.930,-174.805,-446.289
1706146420.790,7.812,28.320,26.855,-56.152,-800.293
1706146420.794,-12.207,35.645,67.383,118.164,290.039
1706146420.797,-47.852,35.156,49.316,26.855,883.789
1706146420.801,-71.777,29.297,12.207,-200.684,-152.344
1706146420.805,-80.078,27.344,19.531,-199.707,-862.793
1706146420.809,-99.609,35.156,59.082,-26.367,-100.098
1706146420.813,-128.418,43.457,66.406,-6.348,-992.676
1706146420.817,-140.625,37.109,28.320,-220.703,232.910
1706146420.821,-144.531,23.438,11.230,-307.129,-799.805
1706146420.824,-142.090,38.574,53.711,-111.328,-374.023
1706146420.828,-146.973,51.758,75.684,3.906,886.719
1706146420.832,-152.344,40.039,36.133,-180.176,498.535
1706146420.836,-138.672,28.809,15.137,-321.777,-689.453
1706146420.840,-118.652,34.668,49.805,-134.766,-627.930
1706146420.841,-108.887,46.387,73.242,50.781,595.215
1706146420.845,-115.723,43.457,50.293,-81.543,753.906
1706146420.849,-104.004,31.250,14.648,-261.719,-437.012
1706146420.853,-70.312,35.645,27.832,-143.555,-837.891
1706146420.857,-60.547,45.410,62.500,67.383,230.957
1706146420.861,-72.754,41.504,55.176,26.855,943.848
1706146420.865,-64.453,28.809,15.137,-175.781,-70.801
1706146420.868,-31.738,30.762,7.324,-174.805,-856.445
1706146420.872,-10.254,44.434,37.598,55.176,-150.391
1706146420.876,-6.836,46.387,46.875,129.883,964.844
1706146420.880,-7.812,32.227,9.277,-73.730,284.668
1706146420.884,1.953,22.949,-9.277,-161.621,-809.082
1706146420.902,19.531,32.227,27.344,51.758,-483.887
1706146420.906,22.461,38.574,47.363,192.871,800.293
1706146420.910,12.207,31.250,14.160,5.859,549.805
1706146420.914,25.879,23.926,-14.648,-154.785,-581.055
1706146420.918,44.434,23.438,16.113,16.113,-670.410
1706146420.922,48.828,29.297,46.387,202.637,475.098
1706146420.926,40.527,26.855,23.926,78.613,819.824
1706146420.929,48.828,16.113,-10.254,-108.887,-313.477
1706146420.933,76.172,18.555,2.930,-34.180,-841.309
1706146420.937,75.684,31.738,39.062,175.781,116.211
1706146420.941,54.688,30.762,38.574,166.016,997.070
1706146420.945,54.199,21.973,3.418,-51.270,82.031
1706146420.946,77.637,21.973,-1.953,-77.148,-778.809
1706146420.950,81.055,25.391,30.273,141.113,-172.852
1706146420.954,60.547,25.391,43.945,220.703,985.840
1706146420.958,53.223,16.113,7.324,4.883,393.555
1706146420.962,70.312,12.207,-15.137,-109.863,-685.059
1706146420.966,80.078,24.902,25.391,90.332,-463.867
1706146420.970,61.035,34.180,48.340,235.840,742.188
1706146420.973,43.457,22.949,15.625,49.316,642.578
1706146420.977,48.340,12.207,-19.043,-120.605,-479.004
1706146420.981,62.988,17.090,1.953,21.484,-720.215
1706146420.985,62.988,30.762,38.574,202.148,370.117
1706146420.989,50.293,32.715,28.320,103.516,878.418
1706146420.991,42.480,22.461,-8.301,-103.516,-207.520
1706146420.995,55.176,21.973,-1.953,-58.105,-862.793
1706146420.999,66.406,36.133,38.086,156.250,4.395
1706146421.003,52.734,35.645,38.086,168.945,-985.352
1706146421.007,47.363,20.020,1.953,-51.758,147.949
1706146421.011,42.969,16.113,-5.859,-106.934,-809.570
1706146421.015,39.551,22.461,30.762,106.934,-302.246
1706146421.018,43.945,30.762,48.828,211.426,912.598
1706146421.022,49.316,24.902,13.184,0.977,459.961
1706146421.026,61.523,15.625,-7.812,-127.930,-686.035
1706146421.030,63.477,24.414,29.785,64.941,-566.406
1706146421.034,58.105,30.273,53.711,214.355,669.922
1706146421.036,44.922,20.508,25.391,55.664,733.887
1706146421.040,45.898,15.137,-5.859,-121.582,-427.734
1706146421.044,54.688,21.484,17.090,-5.371,-815.918
1706146421.048,51.758,30.273,52.734,187.988,259.277
1706146421.052,38.086,33.691,48.340,123.535,920.410
1706146421.056,33.203,19.531,9.277,-79.102,-136.230
1706146421.060,47.363,15.137,8.789,-65.430,-846.680
1706146421.063,48.340,24.902,47.363,141.602,-36.133
1706146421.067,36.621,30.273,54.199,168.457,-992.676
1706146421.071,29.297,22.461,17.090,-48.828,229.492
1706146421.075,31.250,14.160,3.418,-117.188,-801.270
1706146421.079,39.062,25.391,39.551,97.656,-391.602
1706146421.081,39.062,35.156,58.105,214.355,870.605
1706146421.085,28.809,26.367,29.297,11.719,537.598
1706146421.089,37.598,18.555,0.000,-130.371,-671.387
1706146421.093,54.688,29.785,28.320,46.387,-692.871
1706146421.097,44.922,37.109,57.129,208.008,576.172
1706146421.101,31.250,31.738,33.203,59.082,744.629
1706146421.105,33.691,21.484,1.465,-132.324,-428.711
1706146421.108,48.828,21.973,18.066,-28.320,-827.637
1706146421.112,52.734,33.691,51.758,182.617,170.410
1706146421.116,30.762,36.621,52.246,128.418,965.820
1706146421.120,32.227,28.320,13.184,-83.008,-3.906
1706146421.124,61.523,25.879,7.324,-73.730,-848.633
1706146421.127,53.711,35.156,47.852,137.695,-188.477
1706146421.131,37.598,42.480,58.594,190.430,981.445
1706146421.135,53.711,25.879,19.531,-19.043,299.316
1706146421.139,55.664,11.230,1.953,-118.652,-801.270
1706146421.143,48.828,23.926,40.527,80.078,-443.359
1706146421.147,36.621,34.180,60.547,208.984,802.734
1706146421.151,13.184,23.438,29.297,9.766,579.102
1706146421.154,13.672,18.066,-0.488,-155.273,-565.918
1706146421.158,24.414,25.391,29.297,8.789,-708.008
1706146421.162,25.879,30.273,61.523,198.730,454.590
1706146421.166,9.766,29.785,41.016,78.125,830.566
1706146421.170,11.719,19.531,5.859,-127.441,-297.363
1706146421.171,37.598,19.043,15.625,-61.523,-853.516
1706146421.175,40.039,29.297,49.316,153.809,79.590
1706146421.179,23.438,30.273,51.270,158.203,995.605
1706146421.183,30.762,20.020,13.672,-56.641,77.148
1706146421.187,44.434,13.184,6.836,-99.121,-830.078
1706146421.191,38.086,22.949,43.457,120.117,-225.586
1706146421.195,28.809,31.738,56.152,193.359,950.195
1706146421.198,19.043,20.508,21.973,-26.855,363.770
1706146421.202,22.949,12.207,5.371,-132.812,-745.117
1706146421.206,35.156,25.391,45.898,71.289,-514.648
1706146421.210,32.715,35.156,68.848,208.984,732.422
1706146421.214,17.090,24.902,34.180,17.578,676.270
1706146421.216,19.043,13.672,-1.953,-155.273,-491.699
1706146421.220,39.551,22.949,21.484,-6.348,-775.879
1706146421.224,48.340,35.156,52.734,183.594,325.195
1706146421.228,26.855,35.156,38.574,91.309,905.273
1706146421.232,15.137,20.508,3.418,-113.770,-183.105
1706146421.236,33.203,16.602,10.254,-70.801,-934.082
1706146421.240,38.086,30.762,51.270,133.789,-67.383
1706146421.243,27.344,37.598,60.059,144.043,992.188
1706146421.247,28.320,27.832,18.066,-62.500,169.434
1706146421.251,33.691,18.066,3.418,-116.211,-801.270
1706146421.255,28.809,27.344,38.086,94.238,-324.707
1706146421.259,16.602,32.715,51.758,186.035,895.508
1706146421.276,10.254,23.438,17.578,-29.297,482.422
1706146421.280,28.320,17.578,-2.930,-159.180,-681.641
1706146421.284,41.504,26.855,30.762,36.621,-609.863
1706146421.288,22.461,36.621,58.594,198.242,637.695
1706146421.292,3.418,29.785,37.598,45.410,702.148
1706146421.296,15.625,19.043,2.441,-134.766,-495.117
1706146421.300,30.762,20.508,21.973,-29.297,-820.801
1706146421.303,32.715,33.691,62.500,165.527,266.602
1706146421.307,30.273,41.992,52.246,114.746,934.570
1706146421.311,20.508,29.297,5.859,-100.098,-140.137
1706146421.315,25.879,24.414,6.836,-95.215,-868.652
1706146421.319,32.715,35.156,44.434,114.258,-57.617
1706146421.322,26.367,36.621,49.805,154.785,-980.957
1706146421.326,18.066,24.902,14.648,-53.711,259.766
1706146421.330,26.367,20.996,2.441,-134.766,-818.848
1706146421.334,37.598,33.691,40.527,77.148,-408.203
1706146421.338,45.410,47.363,65.918,207.520,887.695
1706146421.342,32.227,38.574,30.273,-1.465,548.828
1706146421.346,31.250,25.391,-3.418,-164.062,-633.301
1706146421.349,48.340,32.227,26.367,11.719,-645.996
1706146421.353,42.480,41.504,53.223,182.129,544.922
1706146421.357,25.879,35.645,33.691,41.992,770.020
1706146421.361,26.855,27.344,1.953,-147.461,-347.168
1706146421.365,51.270,31.250,15.625,-45.410,-832.031
1706146421.366,54.688,39.551,49.805,157.715,142.578
1706146421.370,32.715,39.551,46.875,116.699,967.285
1706146421.374,31.250,28.320,10.742,-93.750,-74.219
1706146421.378,40.527,26.367,7.812,-105.469,-860.840
1706146421.382,46.387,35.156,46.875,122.070,-92.285
1706146421.386,44.922,37.109,55.664,176.758,-987.305
1706146421.390,27.832,27.832,13.184,-50.293,349.121
1706146421.393,40.039,19.531,-4.395,-135.254,-766.602
1706146421.397,41.016,19.531,30.273,69.336,-486.328
1706146421.401,33.691,29.785,55.176,190.918,808.594
1706146421.405,28.320,29.297,25.391,3.418,614.746
1706146421.409,28.320,15.625,-8.301,-155.273,-588.379
1706146421.412,41.992,22.949,23.926,-0.977,-675.293
1706146421.416,40.039,33.691,53.711,175.781,485.840
1706146421.420,25.391,27.832,33.203,62.500,837.891
1706146421.424,27.832,15.137,0.000,-139.648,-309.570
1706146421.428,43.457,15.137,7.812,-83.496,-913.086
1706146421.432,36.133,30.762,41.016,127.441,44.922
1706146421.436,20.020,36.621,46.875,136.719,-973.633
1706146421.439,15.625,23.438,9.766,-73.242,117.188
1706146421.443,30.762,17.578,2.930,-122.559,-822.266
1706146421.447,27.344,28.320,47.852,92.285,-230.957
1706146421.451,0.977,37.598,59.570,172.852,979.980
1706146421.455,5.371,29.785,18.555,-46.387,452.637
1706146421.457,15.625,20.020,-0.488,-168.945,-686.523
1706146421.461,17.578,30.762,30.762,23.438,-552.246
1706146421.465,14.648,37.598,53.711,174.805,698.730
1706146421.469,-4.395,31.250,31.250,8.301,720.215
1706146421.473,-9.766,22.461,-0.488,-159.180,-460.938
1706146421.477,6.836,27.344,21.484,-19.043,-810.547
1706146421.481,10.254,38.574,54.688,171.387,334.961
1706146421.484,0.000,36.133,40.039,78.613,898.438
1706146421.488,12.695,24.414,0.977,-130.371,-231.445
1706146421.492,39.062,21.484,6.348,-85.449,-889.648
1706146421.496,28.809,32.227,41.016,131.348,-11.230
1706146421.500,8.301,37.109,47.852,149.902,-970.703
1706146421.501,4.883,25.879,17.090,-70.801,187.988
1706146421.505,11.230,19.531,3.906,-135.742,-826.660
1706146421.509,27.344,31.250,39.062,81.543,-331.543
1706146421.513,20.020,38.574,59.570,180.176,919.434
1706146421.517,-0.977,31.250,27.344,-24.414,500.488
1706146421.521,2.930,23.438,1.953,-160.156,-683.594
1706146421.525,8.301,23.438,29.785,17.578,-608.887
1706146421.528,-2.930,26.367,54.199,182.129,632.812
1706146421.532,-19.531,21.973,29.297,32.715,723.633
1706146421.536,-7.812,14.160,-2.441,-152.832,-423.828
1706146421.540,7.812,22.461,16.602,-41.992,-754.883
1706146421.544,8.301,37.109,52.734,166.504,292.480
1706146421.546,3.906,33.203,47.852,107.422,956.543
1706146421.550,9.277,20.996,12.207,-106.934,-133.789
1706146421.554,19.043,21.484,14.160,-90.820,-905.762
1706146421.558,20.508,32.227,47.363,120.117,-85.938
1706146421.562,4.883,34.180,52.246,154.297,-979.980
1706146421.566,0.000,21.484,17.090,-60.059,291.992
1706146421.570,24.902,11.719,0.488,-146.484,-795.410
1706146421.573,31.250,27.832,41.016,68.359,-414.551
1706146421.577,11.719,38.086,65.918,188.965,874.023
1706146421.581,2.930,21.484,29.297,-19.531,571.777
1706146421.585,25.879,14.160,0.977,-161.133,-614.258
1706146421.589,40.039,22.949,33.691,20.996,-652.832
1706146421.592,14.648,28.809,62.988,193.359,543.457
1706146421.596,-11.230,26.855,40.527,60.059,774.902
1706146421.600,-2.441,16.602,7.324,-130.859,-364.258
1706146421.604,20.020,14.160,21.973,-45.410,-851.562
1706146421.608,24.902,28.809,55.664,158.691,115.234
1706146421.612,19.531,35.645,51.758,125.977,961.914
1706146421.616,18.555,26.367,16.113,-93.750,27.832
1706146421.619,40.039,30.273,14.160,-104.980,-782.715
1706146421.623,47.852,42.969,49.805,116.699,-142.090
1706146421.627,35.156,38.574,59.082,179.199,988.770
1706146421.631,28.809,28.320,21.484,-37.109,355.469
1706146421.635,33.203,20.020,0.977,-141.602,-742.676
1706146421.651,42.480,27.832,37.598,63.477,-449.707
1706146421.655,35.156,33.691,58.594,203.125,766.602
1706146421.659,15.625,27.832,29.297,11.719,553.711
1706146421.663,27.832,22.949,2.441,-151.367,-598.145
1706146421.667,53.223,28.809,23.438,-0.977,-753.906
1706146421.671,49.805,41.504,50.781,177.246,390.137
1706146421.675,39.551,41.992,36.621,66.406,852.051
1706146421.678,31.250,24.902,2.930,-145.020,-280.273
1706146421.682,50.781,22.461,12.695,-77.148,-864.746
1706146421.686,69.824,35.645,47.852,141.602,88.867
1706146421.690,68.848,38.086,50.293,141.113,-998.535
1706146421.694,71.777,30.273,10.742,-76.660,104.492
1706146421.697,99.609,18.066,-1.465,-128.418,-788.574
1706146421.701,97.168,23.926,37.598,89.844,-230.469
1706146421.705,77.637,30.762,56.641,179.688,939.941
1706146421.709,76.660,22.949,25.879,-27.344,421.875
1706146421.713,87.402,25.879,6.836,-144.043,-710.449
1706146421.717,92.773,28.320,37.109,43.945,-550.781
1706146421.721,69.336,30.273,62.500,191.895,686.523
1706146421.724,42.480,27.344,34.668,25.879,653.320
1706146421.728,31.738,19.531,-1.953,-153.320,-496.094
1706146421.732,50.293,24.902,23.438,-21.484,-748.047
1706146421.736,48.340,27.832,61.523,178.223,335.938
1706146421.740,20.996,26.855,44.922,89.355,910.645
1706146421.741,9.277,24.414,6.836,-117.676,-167.480
1706146421.745,8.301,22.461,15.625,-79.102,-817.383
1706146421.749,7.812,31.250,50.293,125.000,20.996
1706146421.753,4.883,37.109,52.246,143.555,-971.680
1706146421.757,6.836,29.785,14.160,-67.383,204.590
1706146421.761,21.484,25.391,-1.465,-127.441,-791.992
1706146421.765,20.020,28.320,38.574,85.449,-311.523
1706146421.768,-1.953,31.738,59.570,193.359,911.133
1706146421.772,-11.719,25.391,20.020,-21.484,474.609
1706146421.776,0.488,15.625,-5.371,-170.898,-721.680
1706146421.780,23.926,24.414,30.273,16.602,-656.738
1706146421.784,21.484,37.598,58.594,189.941,600.098
1706146421.786,-5.859,33.203,35.156,42.969,743.164
1706146421.790,5.371,19.043,-0.488,-145.996,-466.797
1706146421.794,46.875,25.391,23.926,-35.156,-880.859
1706146421.798,50.781,35.645,56.641,166.504,220.703
1706146421.802,19.531,27.832,40.039,104.004,950.195
1706146421.806,10.254,15.137,4.883,-111.328,-95.215
1706146421.810,29.785,13.184,7.812,-104.492,-874.023
1706146421.813,33.691,26.367,45.410,122.070,-132.812
1706146421.817,12.207,33.203,56.152,167.969,987.305
1706146421.821,2.441,19.043,22.949,-51.758,296.875
1706146421.825,13.184,10.254,4.883,-132.812,-805.664
1706146421.829,10.254,20.020,37.109,68.359,-449.707
1706146421.831,-8.301,29.297,60.059,196.289,833.984
1706146421.835,-23.438,22.461,31.738,-0.977,559.570
1706146421.839,-11.719,11.719,2.441,-161.133,-634.277
1706146421.843,8.301,18.066,29.297,18.066,-679.688
1706146421.847,-1.953,27.344,54.199,192.871,522.949
1706146421.851,-19.043,25.879,32.715,53.711,798.828
1706146421.855,-10.254,20.508,-2.441,-139.160,-306.152
1706146421.858,19.531,21.973,10.254,-52.246,-821.289
1706146421.862,29.297,34.180,50.293,163.086,134.766
1706146421.866,4.883,31.738,51.270,139.648,979.492
1706146421.870,-12.695,23.438,18.555,-83.496,-9.277
1706146421.874,1.465,24.902,14.648,-105.957,-853.516
1706146421.877,10.742,29.297,41.992,104.492,-191.406
1706146421.881,-11.719,31.250,52.734,162.598,969.238
1706146421.885,-20.996,19.043,13.672,-58.594,344.727
1706146421.889,-4.395,15.625,-5.371,-155.762,-805.176
1706146421.893,10.742,28.809,36.621,48.340,-526.855
1706146421.897,16.602,36.621,58.594,187.012,757.812
1706146421.901,1.465,23.438,30.273,17.090,615.234
1706146421.904,1.465,14.160,0.977,-150.391,-548.340
1706146421.908,23.926,27.344,25.391,-4.395,-743.164
1706146421.912,23.926,34.180,55.176,188.477,396.484
1706146421.916,3.418,28.809,37.109,82.520,857.910
1706146421.920,5.859,20.020,1.465,-124.512,-241.699
1706146421.921,20.996,18.066,11.719,-67.871,-892.090
1706146421.925,21.973,31.738,46.875,140.625,-4.395
1706146421.929,11.719,39.551,51.270,137.695,-995.117
1706146421.933,0.977,30.273,17.090,-76.660,153.809
1706146421.937,10.742,22.949,3.906,-127.930,-729.492
1706146421.941,18.066,32.715,39.062,84.473,-216.309
1706146421.945,12.695,39.551,55.664,179.199,915.527
1706146421.948,9.766,28.320,23.438,-37.109,403.809
1706146421.952,15.625,20.020,-3.906,-164.062,-729.004
1706146421.956,24.414,28.320,25.391,36.621,-607.422
1706146421.960,20.020,42.480,57.129,192.383,658.691
1706146421.964,9.766,37.109,29.785,25.879,652.344
1706146421.966,24.902,22.949,-4.395,-148.438,-542.480
1706146421.970,31.250,28.809,15.625,-14.648,-835.449
1706146421.974,15.137,42.480,55.176,183.594,278.320
1706146421.978,6.348,42.480,53.711,106.934,905.273
1706146421.982,7.324,26.855,13.672,-104.980,-170.410
1706146421.986,21.484,20.508,10.742,-83.008,-860.840
1706146421.990,20.996,26.855,43.457,128.906,-85.449
1706146421.993,6.836,32.715,47.852,159.180,964.844
1706146421.997,9.277,27.344,13.184,-56.152,178.223
1706146422.001,23.926,18.555,-2.930,-129.883,-793.945
1706146422.005,29.297,29.785,33.203,80.566,-293.945
1706146422.009,19.531,44.434,59.082,191.895,914.551
1706146422.012,2.441,32.227,22.461,-16.602,539.551
1706146422.016,12.207,22.461,-2.930,-160.156,-608.398
1706146422.020,20.996,34.180,29.785,17.578,-588.379
1706146422.024,1.953,45.410,59.570,176.758,607.910
1706146422.028,-4.883,40.039,35.156,29.785,737.305
1706146422.032,-1.953,25.391,-6.348,-161.621,-423.828
1706146422.036,-1.465,27.344,11.719,-57.617,-780.273
1706146422.039,-2.441,39.062,49.316,153.809,238.281
1706146422.043,-15.625,39.062,44.434,111.816,944.824
1706146422.047,-16.602,22.949,6.836,-103.027,-85.449
1706146422.051,-2.441,19.531,5.371,-106.445,-887.207
1706146422.055,0.977,33.203,46.875,107.910,-124.512
1706146422.071,-2.930,38.086,59.570,162.598,994.141
1706146422.075,-14.160,22.461,13.672,-56.152,260.742
1706146422.079,-7.812,16.113,-6.348,-145.996,-755.859
1706146422.083,13.184,28.809,35.645,65.918,-385.742
1706146422.087,9.277,37.598,55.176,192.383,817.871
1706146422.091,-7.812,26.855,19.531,-1.465,559.082
1706146422.095,13.184,13.672,0.977,-151.367,-567.383
1706146422.098,38.574,21.973,34.668,20.020,-690.918
1706146422.102,24.902,28.320,53.223,191.406,460.938
1706146422.106,-4.883,27.832,31.738,61.523,785.156
1706146422.110,-9.766,20.508,-0.488,-135.742,-322.266
1706146422.114,-1.465,23.438,11.230,-62.988,-846.680
1706146422.117,-3.418,33.203,44.922,132.324,111.816
1706146422.121,-13.672,32.715,42.969,111.328,-999.512
1706146422.125,-13.672,25.391,11.230,-94.727,69.336
1706146422.129,8.789,19.531,4.883,-117.188,-800.781
1706146422.133,21.973,35.156,46.875,103.516,-215.332
1706146422.137,17.578,34.668,62.988,178.711,948.730
1706146422.141,9.277,17.578,18.555,-35.645,391.602
1706146422.144,9.766,17.578,-5.371,-148.926,-701.172
1706146422.148,6.836,20.508,30.762,45.410,-487.793
1706146422.152,5.371,25.391,63.965,193.848,743.164
1706146422.156,0.488,14.648,35.645,23.438,651.367
